title:Psychopy_Abdullah_2_2023-02-10T115551.256258, start timestamp:1676058951.173312, stop timestamp:1676059012.180282, headset type:EPOCX, headset serial:E2020A42, headset firmware:720, channels:125, sampling rate:eeg_128;pow_8, samples:7814      , version:2.1, 
Timestamp,OriginalTimestamp,EEG.Counter,EEG.Interpolated,EEG.AF3,EEG.F7,EEG.F3,EEG.FC5,EEG.T7,EEG.P7,EEG.O1,EEG.O2,EEG.P8,EEG.T8,EEG.FC6,EEG.F4,EEG.F8,EEG.AF4,EEG.RawCq,EEG.Battery,EEG.BatteryPercent,MarkerIndex,MarkerType,MarkerValueInt,EEG.MarkerHardware,CQ.AF3,CQ.F7,CQ.F3,CQ.FC5,CQ.T7,CQ.P7,CQ.O1,CQ.O2,CQ.P8,CQ.T8,CQ.FC6,CQ.F4,CQ.F8,CQ.AF4,CQ.Overall,EQ.SampleRateQuality,EQ.OVERALL,EQ.AF3,EQ.F7,EQ.F3,EQ.FC5,EQ.T7,EQ.P7,EQ.O1,EQ.O2,EQ.P8,EQ.T8,EQ.FC6,EQ.F4,EQ.F8,EQ.AF4,POW.AF3.Theta,POW.AF3.Alpha,POW.AF3.BetaL,POW.AF3.BetaH,POW.AF3.Gamma,POW.F7.Theta,POW.F7.Alpha,POW.F7.BetaL,POW.F7.BetaH,POW.F7.Gamma,POW.F3.Theta,POW.F3.Alpha,POW.F3.BetaL,POW.F3.BetaH,POW.F3.Gamma,POW.FC5.Theta,POW.FC5.Alpha,POW.FC5.BetaL,POW.FC5.BetaH,POW.FC5.Gamma,POW.T7.Theta,POW.T7.Alpha,POW.T7.BetaL,POW.T7.BetaH,POW.T7.Gamma,POW.P7.Theta,POW.P7.Alpha,POW.P7.BetaL,POW.P7.BetaH,POW.P7.Gamma,POW.O1.Theta,POW.O1.Alpha,POW.O1.BetaL,POW.O1.BetaH,POW.O1.Gamma,POW.O2.Theta,POW.O2.Alpha,POW.O2.BetaL,POW.O2.BetaH,POW.O2.Gamma,POW.P8.Theta,POW.P8.Alpha,POW.P8.BetaL,POW.P8.BetaH,POW.P8.Gamma,POW.T8.Theta,POW.T8.Alpha,POW.T8.BetaL,POW.T8.BetaH,POW.T8.Gamma,POW.FC6.Theta,POW.FC6.Alpha,POW.FC6.BetaL,POW.FC6.BetaH,POW.FC6.Gamma,POW.F4.Theta,POW.F4.Alpha,POW.F4.BetaL,POW.F4.BetaH,POW.F4.Gamma,POW.F8.Theta,POW.F8.Alpha,POW.F8.BetaL,POW.F8.BetaH,POW.F8.Gamma,POW.AF4.Theta,POW.AF4.Alpha,POW.AF4.BetaL,POW.AF4.BetaH,POW.AF4.Gamma
1676058951.173312,1676058951.173620,26.000000,0.000000,4290.769043,4283.077148,4305.512695,4300.769043,4295.897461,4458.333496,4297.820313,4277.179688,4265.128418,4264.615234,4444.358887,4472.820313,4365.769043,4405.769043,0.000000,4.000000,90.000000,,,,0.000000,4.000000,4.000000,4.000000,4.000000,4.000000,4.000000,4.000000,4.000000,4.000000,4.000000,4.000000,4.000000,4.000000,4.000000,100.000000,,,,,,,,,,,,,,,,,,,,,,,,,,,,,,,,,,,,,,,,,,,,,,,,,,,,,,,,,,,,,,,,,,,,,,,,,,,,,,,,,,,,,,
1676058951.181121,1676058951.181528,27.000000,0.000000,4292.820313,4292.436035,4312.820313,4308.461426,4298.205078,4450.384766,4317.051270,4282.436035,4275.384766,4270.512695,4451.282227,4479.102539,4367.051270,4406.666504,0.000000,4.000000,90.000000,,,,0.000000,4.000000,4.000000,4.000000,4.000000,4.000000,4.000000,4.000000,4.000000,4.000000,4.000000,4.000000,4.000000,4.000000,4.000000,100.000000,,,,,,,,,,,,,,,,,,,,,,,,,,,,,,,,,,,,,,,,,,,,,,,,,,,,,,,,,,,,,,,,,,,,,,,,,,,,,,,,,,,,,,
1676058951.188929,1676058951.189337,28.000000,0.000000,4296.666504,4295.897461,4311.922852,4306.153809,4297.307617,4444.871582,4327.051270,4291.922852,4281.794922,4276.922852,4459.487305,4489.615234,4374.615234,4412.051270,0.000000,4.000000,90.000000,,,,0.000000,4.000000,4.000000,4.000000,4.000000,4.000000,4.000000,4.000000,4.000000,4.000000,4.000000,4.000000,4.000000,4.000000,4.000000,100.000000,,,,,,,,,,,,,,,,,,,,,,,,,,,,,,,,,,,,,,,,,,,,,,,,,,,,,,,,,,,,,,,,,,,,,,,,,,,,,,,,,,,,,,
1676058951.196738,1676058951.197145,29.000000,0.000000,4295.641113,4281.410156,4310.128418,4296.666504,4293.461426,4436.794922,4330.256348,4299.487305,4281.410156,4278.846191,4457.051270,4491.666504,4374.871582,4412.948730,0.000000,4.000000,90.000000,,,,0.000000,4.000000,4.000000,4.000000,4.000000,4.000000,4.000000,4.000000,4.000000,4.000000,4.000000,4.000000,4.000000,4.000000,4.000000,100.000000,,,,,,,,,,,,,,,,,,,,,,,,,,,,,,,,,,,,,,,,,,,,,,,,,,,,,,,,,,,,,,,,,,,,,,,,,,,,,,,,,,,,,,
1676058951.204546,1676058951.204854,30.000000,0.000000,4292.948730,4273.974121,4307.820313,4294.358887,4292.820313,4417.692383,4318.461426,4298.077148,4282.692383,4275.000000,4453.589844,4488.205078,4368.333496,4406.794922,0.000000,4.000000,90.000000,,,,0.000000,4.000000,4.000000,4.000000,4.000000,4.000000,4.000000,4.000000,4.000000,4.000000,4.000000,4.000000,4.000000,4.000000,4.000000,100.000000,,,,,,,,,,,,,,,,,1.487970,6.568944,0.518263,0.210700,0.108305,2.568402,4.623988,0.336706,0.222395,0.138940,1.730277,7.514050,0.502819,0.261927,0.080174,0.858521,5.478334,0.323839,0.232936,0.138465,0.310009,1.941473,0.175908,0.109765,0.145653,7.249679,1.271840,0.560608,0.159177,0.111736,1.192499,3.889831,0.504545,0.412849,0.123600,1.319271,19.360323,0.936943,0.867611,0.175273,0.773738,4.253754,0.205874,0.347002,0.118691,0.519356,1.756805,0.191257,0.128218,0.122084,4.142139,6.725924,0.660122,0.331385,0.308887,1.679156,8.567719,0.347085,0.441566,0.184721,0.744086,4.186469,0.302081,0.287423,0.258912,38.177692,8.486690,4.709791,1.893404,1.050930
1676058951.212354,1676058951.212762,31.000000,0.000000,4287.307617,4277.563965,4304.615234,4295.000000,4291.538574,4396.538574,4300.641113,4294.230957,4282.820313,4272.436035,4451.794922,4488.461426,4367.179688,4403.461426,0.000000,4.000000,90.000000,,,,0.000000,4.000000,4.000000,4.000000,4.000000,4.000000,4.000000,4.000000,4.000000,4.000000,4.000000,4.000000,4.000000,4.000000,4.000000,100.000000,,,,,,,,,,,,,,,,,,,,,,,,,,,,,,,,,,,,,,,,,,,,,,,,,,,,,,,,,,,,,,,,,,,,,,,,,,,,,,,,,,,,,,
1676058951.220163,1676058951.220570,32.000000,0.000000,4287.307617,4282.307617,4305.128418,4293.461426,4287.307617,4388.333496,4300.384766,4291.794922,4281.410156,4272.179688,4443.974121,4489.743652,4370.384766,4406.025879,0.000000,4.000000,90.000000,,,,0.000000,4.000000,4.000000,4.000000,4.000000,4.000000,4.000000,4.000000,4.000000,4.000000,4.000000,4.000000,4.000000,4.000000,4.000000,100.000000,,,,,,,,,,,,,,,,,,,,,,,,,,,,,,,,,,,,,,,,,,,,,,,,,,,,,,,,,,,,,,,,,,,,,,,,,,,,,,,,,,,,,,
1676058951.227971,1676058951.228479,33.000000,0.000000,4292.820313,4281.794922,4307.436035,4293.974121,4288.205078,4378.974121,4301.922852,4287.820313,4281.794922,4275.256348,4446.025879,4489.615234,4373.205078,4411.922852,0.000000,4.000000,90.000000,,,,0.000000,4.000000,4.000000,4.000000,4.000000,4.000000,4.000000,4.000000,4.000000,4.000000,4.000000,4.000000,4.000000,4.000000,4.000000,100.000000,,,,,,,,,,,,,,,,,,,,,,,,,,,,,,,,,,,,,,,,,,,,,,,,,,,,,,,,,,,,,,,,,,,,,,,,,,,,,,,,,,,,,,
1676058951.235780,1676058951.236287,34.000000,0.000000,4295.512695,4277.179688,4309.871582,4295.128418,4293.205078,4359.487305,4297.307617,4282.179688,4278.974121,4280.512695,4458.717773,4491.410156,4377.051270,4420.769043,0.000000,4.000000,90.000000,,,,0.000000,4.000000,4.000000,4.000000,4.000000,4.000000,4.000000,4.000000,4.000000,4.000000,4.000000,4.000000,4.000000,4.000000,4.000000,100.000000,,,,,,,,,,,,,,,,,,,,,,,,,,,,,,,,,,,,,,,,,,,,,,,,,,,,,,,,,,,,,,,,,,,,,,,,,,,,,,,,,,,,,,
1676058951.243588,1676058951.244196,35.000000,0.000000,4301.282227,4286.922852,4316.922852,4299.230957,4294.487305,4346.666504,4302.948730,4281.282227,4276.410156,4280.769043,4464.358887,4497.948730,4385.512695,4429.743652,0.000000,4.000000,90.000000,,,,0.000000,4.000000,4.000000,4.000000,4.000000,4.000000,4.000000,4.000000,4.000000,4.000000,4.000000,4.000000,4.000000,4.000000,4.000000,100.000000,,,,,,,,,,,,,,,,,,,,,,,,,,,,,,,,,,,,,,,,,,,,,,,,,,,,,,,,,,,,,,,,,,,,,,,,,,,,,,,,,,,,,,
1676058951.251396,1676058951.252004,36.000000,0.000000,4310.641113,4302.563965,4324.102539,4308.077148,4294.871582,4339.615234,4312.563965,4286.794922,4277.692383,4277.948730,4463.333496,4506.025879,4395.897461,4433.846191,0.000000,4.000000,90.000000,,,,0.000000,4.000000,4.000000,4.000000,4.000000,4.000000,4.000000,4.000000,4.000000,4.000000,4.000000,4.000000,4.000000,4.000000,4.000000,100.000000,,,,,,,,,,,,,,,,,,,,,,,,,,,,,,,,,,,,,,,,,,,,,,,,,,,,,,,,,,,,,,,,,,,,,,,,,,,,,,,,,,,,,,
1676058951.259205,1676058951.259912,37.000000,0.000000,4314.358887,4301.153809,4327.179688,4311.794922,4296.410156,4329.743652,4311.666504,4296.794922,4283.077148,4279.743652,4464.871582,4508.846191,4400.897461,4437.051270,0.000000,4.000000,90.000000,,,,0.000000,4.000000,4.000000,4.000000,4.000000,4.000000,4.000000,4.000000,4.000000,4.000000,4.000000,4.000000,4.000000,4.000000,4.000000,100.000000,,,,,,,,,,,,,,,,,,,,,,,,,,,,,,,,,,,,,,,,,,,,,,,,,,,,,,,,,,,,,,,,,,,,,,,,,,,,,,,,,,,,,,
1676058951.267013,1676058951.267721,38.000000,0.000000,4310.769043,4296.282227,4326.410156,4313.077148,4297.563965,4323.589844,4312.307617,4308.717773,4290.641113,4284.358887,4468.077148,4510.000000,4395.000000,4437.948730,0.000000,4.000000,90.000000,,,,0.000000,4.000000,4.000000,4.000000,4.000000,4.000000,4.000000,4.000000,4.000000,4.000000,4.000000,4.000000,4.000000,4.000000,4.000000,100.000000,,,,,,,,,,,,,,,,,,,,,,,,,,,,,,,,,,,,,,,,,,,,,,,,,,,,,,,,,,,,,,,,,,,,,,,,,,,,,,,,,,,,,,
1676058951.274821,1676058951.275429,39.000000,0.000000,4301.794922,4300.000000,4320.641113,4310.512695,4296.666504,4318.077148,4311.922852,4309.743652,4295.384766,4281.794922,4462.436035,4505.769043,4382.820313,4427.179688,0.000000,4.000000,90.000000,,,,0.000000,4.000000,4.000000,4.000000,4.000000,4.000000,4.000000,4.000000,4.000000,4.000000,4.000000,4.000000,4.000000,4.000000,4.000000,100.000000,,,,,,,,,,,,,,,,,,,,,,,,,,,,,,,,,,,,,,,,,,,,,,,,,,,,,,,,,,,,,,,,,,,,,,,,,,,,,,,,,,,,,,
1676058951.282630,1676058951.283338,40.000000,0.000000,4293.205078,4296.282227,4311.538574,4299.615234,4291.666504,4307.948730,4300.128418,4299.615234,4293.077148,4274.230957,4449.743652,4494.871582,4374.358887,4412.436035,0.000000,4.000000,90.000000,,,,0.000000,4.000000,4.000000,4.000000,4.000000,4.000000,4.000000,4.000000,4.000000,4.000000,4.000000,4.000000,4.000000,4.000000,4.000000,100.000000,,,,,,,,,,,,,,,,,,,,,,,,,,,,,,,,,,,,,,,,,,,,,,,,,,,,,,,,,,,,,,,,,,,,,,,,,,,,,,,,,,,,,,
1676058951.290438,1676058951.291146,41.000000,0.000000,4290.384766,4290.000000,4300.512695,4292.436035,4288.333496,4301.153809,4297.563965,4292.307617,4285.769043,4269.615234,4439.871582,4484.487305,4369.487305,4405.769043,0.000000,4.000000,90.000000,,,,0.000000,4.000000,4.000000,4.000000,4.000000,4.000000,4.000000,4.000000,4.000000,4.000000,4.000000,4.000000,4.000000,4.000000,4.000000,100.000000,,,,,,,,,,,,,,,,,,,,,,,,,,,,,,,,,,,,,,,,,,,,,,,,,,,,,,,,,,,,,,,,,,,,,,,,,,,,,,,,,,,,,,
1676058951.298247,1676058951.299054,42.000000,0.000000,4285.256348,4291.666504,4293.974121,4293.589844,4291.282227,4299.487305,4306.538574,4289.615234,4280.256348,4267.307617,4436.922852,4478.717773,4364.358887,4402.179688,0.000000,4.000000,90.000000,,,,0.000000,4.000000,4.000000,4.000000,4.000000,4.000000,4.000000,4.000000,4.000000,4.000000,4.000000,4.000000,4.000000,4.000000,4.000000,100.000000,,,,,,,,,,,,,,,,,,,,,,,,,,,,,,,,,,,,,,,,,,,,,,,,,,,,,,,,,,,,,,,,,,,,,,,,,,,,,,,,,,,,,,
1676058951.306055,1676058951.306863,43.000000,0.000000,4278.461426,4288.717773,4299.487305,4294.230957,4293.333496,4295.641113,4313.461426,4293.589844,4280.128418,4265.128418,4438.846191,4477.948730,4365.512695,4400.769043,0.000000,4.000000,90.000000,,,,0.000000,4.000000,4.000000,4.000000,4.000000,4.000000,4.000000,4.000000,4.000000,4.000000,4.000000,4.000000,4.000000,4.000000,4.000000,100.000000,,,,,,,,,,,,,,,,,,,,,,,,,,,,,,,,,,,,,,,,,,,,,,,,,,,,,,,,,,,,,,,,,,,,,,,,,,,,,,,,,,,,,,
1676058951.313863,1676058951.314671,44.000000,0.000000,4277.563965,4281.410156,4303.205078,4293.717773,4293.333496,4288.589844,4316.794922,4298.974121,4283.077148,4265.000000,4435.128418,4477.948730,4367.692383,4398.974121,0.000000,4.000000,90.000000,,,,0.000000,4.000000,4.000000,4.000000,4.000000,4.000000,4.000000,4.000000,4.000000,4.000000,4.000000,4.000000,4.000000,4.000000,4.000000,100.000000,,,,,,,,,,,,,,,,,,,,,,,,,,,,,,,,,,,,,,,,,,,,,,,,,,,,,,,,,,,,,,,,,,,,,,,,,,,,,,,,,,,,,,
1676058951.321672,1676058951.322380,45.000000,0.000000,4277.307617,4279.358887,4295.000000,4292.307617,4293.846191,4282.051270,4310.512695,4288.846191,4280.512695,4265.897461,4425.897461,4474.102539,4360.897461,4394.871582,0.000000,4.000000,90.000000,,,,0.000000,4.000000,4.000000,4.000000,4.000000,4.000000,4.000000,4.000000,4.000000,4.000000,4.000000,4.000000,4.000000,4.000000,4.000000,100.000000,,,,,,,,,,,,,,,,,,,,,,,,,,,,,,,,,,,,,,,,,,,,,,,,,,,,,,,,,,,,,,,,,,,,,,,,,,,,,,,,,,,,,,
1676058951.329480,1676058951.330188,46.000000,0.000000,4276.153809,4279.487305,4292.179688,4289.358887,4292.179688,4272.436035,4296.794922,4275.128418,4273.589844,4265.769043,4424.230957,4472.563965,4356.794922,4394.102539,0.000000,4.000000,90.000000,,,,0.000000,4.000000,4.000000,4.000000,4.000000,4.000000,4.000000,4.000000,4.000000,4.000000,4.000000,4.000000,4.000000,4.000000,4.000000,100.000000,,,,,,,,,,,,,,,,,1.467517,6.204269,0.571318,0.222272,0.100794,2.294920,4.309757,0.378716,0.244895,0.124907,1.757013,7.136520,0.591426,0.279120,0.086451,0.831071,5.147310,0.433031,0.229389,0.115939,0.300056,1.811194,0.221626,0.112451,0.143732,13.816244,1.596043,1.301276,0.247599,0.123020,1.464508,3.827483,0.572618,0.494162,0.120674,1.374696,17.820036,0.959954,0.857048,0.179274,0.785994,3.603075,0.188013,0.351459,0.123320,0.567319,1.722246,0.206680,0.132749,0.136188,5.123412,6.878684,0.820942,0.399245,0.283543,1.829773,8.575864,0.429910,0.522263,0.195430,0.881816,4.348734,0.307087,0.352859,0.244818,37.050682,8.535483,4.521779,1.853024,0.984164
1676058951.337289,1676058951.337897,47.000000,0.000000,4281.410156,4278.589844,4304.102539,4291.025879,4293.717773,4257.179688,4288.205078,4278.974121,4273.333496,4265.000000,4431.025879,4475.128418,4363.205078,4399.743652,0.000000,4.000000,90.000000,,,,0.000000,4.000000,4.000000,4.000000,4.000000,4.000000,4.000000,4.000000,4.000000,4.000000,4.000000,4.000000,4.000000,4.000000,4.000000,100.000000,,,,,,,,,,,,,,,,,,,,,,,,,,,,,,,,,,,,,,,,,,,,,,,,,,,,,,,,,,,,,,,,,,,,,,,,,,,,,,,,,,,,,,
1676058951.345097,1676058951.345705,48.000000,0.000000,4289.743652,4281.794922,4313.974121,4294.743652,4293.974121,4246.025879,4283.205078,4282.051270,4278.205078,4263.846191,4430.512695,4480.512695,4365.128418,4400.384766,0.000000,4.000000,90.000000,,,,0.000000,4.000000,4.000000,4.000000,4.000000,4.000000,4.000000,4.000000,4.000000,4.000000,4.000000,4.000000,4.000000,4.000000,4.000000,100.000000,,,,,,,,,,,,,,,,,,,,,,,,,,,,,,,,,,,,,,,,,,,,,,,,,,,,,,,,,,,,,,,,,,,,,,,,,,,,,,,,,,,,,,
1676058951.352905,1676058951.353414,49.000000,0.000000,4294.743652,4287.563965,4313.205078,4294.102539,4286.538574,4248.077148,4279.102539,4278.846191,4280.512695,4264.358887,4425.897461,4485.897461,4365.000000,4400.128418,0.000000,4.000000,90.000000,,,,0.000000,4.000000,4.000000,4.000000,4.000000,4.000000,4.000000,4.000000,4.000000,4.000000,4.000000,4.000000,4.000000,4.000000,4.000000,100.000000,,,,,,,,,,,,,,,,,,,,,,,,,,,,,,,,,,,,,,,,,,,,,,,,,,,,,,,,,,,,,,,,,,,,,,,,,,,,,,,,,,,,,,
1676058951.360714,1676058951.361222,50.000000,0.000000,4294.487305,4288.333496,4309.871582,4293.461426,4285.256348,4248.077148,4284.615234,4287.051270,4277.051270,4265.128418,4428.077148,4483.589844,4365.000000,4407.307617,0.000000,4.000000,90.000000,,,,0.000000,4.000000,4.000000,4.000000,4.000000,4.000000,4.000000,4.000000,4.000000,4.000000,4.000000,4.000000,4.000000,4.000000,4.000000,100.000000,,,,,,,,,,,,,,,,,,,,,,,,,,,,,,,,,,,,,,,,,,,,,,,,,,,,,,,,,,,,,,,,,,,,,,,,,,,,,,,,,,,,,,
1676058951.368522,1676058951.368931,51.000000,0.000000,4293.205078,4288.846191,4309.615234,4294.871582,4291.922852,4238.333496,4295.897461,4297.179688,4272.307617,4263.205078,4427.436035,4480.128418,4358.077148,4407.179688,0.000000,4.000000,90.000000,,,,0.000000,4.000000,4.000000,4.000000,4.000000,4.000000,4.000000,4.000000,4.000000,4.000000,4.000000,4.000000,4.000000,4.000000,4.000000,100.000000,,,,,,,,,,,,,,,,,,,,,,,,,,,,,,,,,,,,,,,,,,,,,,,,,,,,,,,,,,,,,,,,,,,,,,,,,,,,,,,,,,,,,,
1676058951.376331,1676058951.376839,52.000000,0.000000,4295.000000,4294.230957,4314.102539,4297.948730,4293.461426,4232.179688,4305.000000,4297.436035,4273.589844,4260.256348,4427.307617,4486.922852,4357.436035,4401.025879,0.000000,4.000000,90.000000,,,,0.000000,4.000000,4.000000,4.000000,4.000000,4.000000,4.000000,4.000000,4.000000,4.000000,4.000000,4.000000,4.000000,4.000000,4.000000,100.000000,,,,,,,,,,,,,,,,,,,,,,,,,,,,,,,,,,,,,,,,,,,,,,,,,,,,,,,,,,,,,,,,,,,,,,,,,,,,,,,,,,,,,,
1676058951.384139,1676058951.384648,53.000000,0.000000,4297.563965,4298.333496,4317.307617,4302.820313,4292.436035,4232.563965,4311.922852,4299.743652,4282.179688,4264.230957,4438.205078,4494.358887,4368.205078,4407.563965,0.000000,4.000000,90.000000,,,,0.000000,4.000000,4.000000,4.000000,4.000000,4.000000,4.000000,4.000000,4.000000,4.000000,4.000000,4.000000,4.000000,4.000000,4.000000,100.000000,,,,,,,,,,,,,,,,,,,,,,,,,,,,,,,,,,,,,,,,,,,,,,,,,,,,,,,,,,,,,,,,,,,,,,,,,,,,,,,,,,,,,,
1676058951.391947,1676058951.392556,54.000000,0.000000,4296.794922,4292.051270,4315.000000,4304.871582,4294.487305,4232.051270,4312.692383,4306.922852,4289.871582,4273.846191,4446.025879,4494.230957,4371.410156,4415.641113,0.000000,4.000000,90.000000,,,,0.000000,4.000000,4.000000,4.000000,4.000000,4.000000,4.000000,4.000000,4.000000,4.000000,4.000000,4.000000,4.000000,4.000000,4.000000,100.000000,,,,,,,,,,,,,,,,,,,,,,,,,,,,,,,,,,,,,,,,,,,,,,,,,,,,,,,,,,,,,,,,,,,,,,,,,,,,,,,,,,,,,,
1676058951.399756,1676058951.400364,55.000000,0.000000,4293.333496,4289.102539,4312.307617,4301.410156,4294.871582,4230.769043,4309.871582,4310.897461,4292.436035,4274.871582,4444.230957,4491.794922,4364.487305,4409.102539,0.000000,4.000000,90.000000,,,,0.000000,4.000000,4.000000,4.000000,4.000000,4.000000,4.000000,4.000000,4.000000,4.000000,4.000000,4.000000,4.000000,4.000000,4.000000,100.000000,,,,,,,,,,,,,,,,,,,,,,,,,,,,,,,,,,,,,,,,,,,,,,,,,,,,,,,,,,,,,,,,,,,,,,,,,,,,,,,,,,,,,,
1676058951.407564,1676058951.408273,56.000000,0.000000,4293.461426,4293.333496,4314.102539,4297.563965,4293.333496,4229.871582,4310.769043,4308.589844,4293.205078,4268.717773,4443.846191,4491.794922,4361.282227,4401.794922,0.000000,4.000000,90.000000,,,,0.000000,4.000000,4.000000,4.000000,4.000000,4.000000,4.000000,4.000000,4.000000,4.000000,4.000000,4.000000,4.000000,4.000000,4.000000,100.000000,,,,,,,,,,,,,,,,,,,,,,,,,,,,,,,,,,,,,,,,,,,,,,,,,,,,,,,,,,,,,,,,,,,,,,,,,,,,,,,,,,,,,,
1676058951.415372,1676058951.416181,57.000000,0.000000,4296.922852,4291.025879,4313.077148,4295.769043,4293.717773,4223.846191,4311.922852,4300.256348,4291.153809,4266.922852,4439.871582,4493.333496,4361.794922,4401.153809,0.000000,4.000000,90.000000,,,,0.000000,4.000000,4.000000,4.000000,4.000000,4.000000,4.000000,4.000000,4.000000,4.000000,4.000000,4.000000,4.000000,4.000000,4.000000,100.000000,,,,,,,,,,,,,,,,,,,,,,,,,,,,,,,,,,,,,,,,,,,,,,,,,,,,,,,,,,,,,,,,,,,,,,,,,,,,,,,,,,,,,,
1676058951.423181,1676058951.423990,58.000000,0.000000,4290.897461,4280.384766,4308.077148,4296.025879,4293.333496,4217.179688,4310.000000,4294.743652,4280.512695,4267.307617,4429.102539,4486.666504,4359.358887,4397.563965,0.000000,4.000000,90.000000,,,,0.000000,4.000000,4.000000,4.000000,4.000000,4.000000,4.000000,4.000000,4.000000,4.000000,4.000000,4.000000,4.000000,4.000000,4.000000,100.000000,,,,,,,,,,,,,,,,,,,,,,,,,,,,,,,,,,,,,,,,,,,,,,,,,,,,,,,,,,,,,,,,,,,,,,,,,,,,,,,,,,,,,,
1676058951.430989,1676058951.431798,59.000000,0.000000,4281.410156,4277.692383,4308.461426,4295.641113,4293.589844,4217.051270,4307.948730,4293.333496,4268.589844,4264.615234,4425.641113,4475.384766,4355.384766,4395.384766,0.000000,4.000000,90.000000,,,,0.000000,4.000000,4.000000,4.000000,4.000000,4.000000,4.000000,4.000000,4.000000,4.000000,4.000000,4.000000,4.000000,4.000000,4.000000,100.000000,,,,,,,,,,,,,,,,,,,,,,,,,,,,,,,,,,,,,,,,,,,,,,,,,,,,,,,,,,,,,,,,,,,,,,,,,,,,,,,,,,,,,,
1676058951.438798,1676058951.439706,60.000000,0.000000,4285.641113,4289.102539,4310.897461,4294.615234,4295.512695,4215.769043,4305.512695,4287.820313,4270.897461,4262.051270,4431.282227,4474.358887,4356.666504,4395.769043,0.000000,4.000000,90.000000,,,,0.000000,4.000000,4.000000,4.000000,4.000000,4.000000,4.000000,4.000000,4.000000,4.000000,4.000000,4.000000,4.000000,4.000000,4.000000,100.000000,,,,,,,,,,,,,,,,,,,,,,,,,,,,,,,,,,,,,,,,,,,,,,,,,,,,,,,,,,,,,,,,,,,,,,,,,,,,,,,,,,,,,,
1676058951.446606,1676058951.447615,61.000000,0.000000,4295.384766,4297.051270,4310.897461,4296.282227,4295.641113,4208.077148,4299.615234,4279.743652,4278.461426,4268.333496,4431.666504,4481.153809,4365.000000,4397.051270,0.000000,4.000000,90.000000,,,,0.000000,4.000000,4.000000,4.000000,4.000000,4.000000,4.000000,4.000000,4.000000,4.000000,4.000000,4.000000,4.000000,4.000000,4.000000,100.000000,,,,,,,,,,,,,,,,,,,,,,,,,,,,,,,,,,,,,,,,,,,,,,,,,,,,,,,,,,,,,,,,,,,,,,,,,,,,,,,,,,,,,,
1676058951.454414,1676058951.455423,62.000000,0.000000,4295.128418,4295.641113,4309.615234,4297.820313,4295.897461,4194.615234,4283.205078,4278.717773,4277.179688,4276.025879,4432.051270,4486.282227,4370.641113,4402.692383,0.000000,4.000000,90.000000,,,,0.000000,4.000000,4.000000,4.000000,4.000000,4.000000,4.000000,4.000000,4.000000,4.000000,4.000000,4.000000,4.000000,4.000000,4.000000,100.000000,,,,,,,,,,,,,,,,,1.518712,5.482334,0.666834,0.256176,0.097394,2.039457,3.685729,0.467432,0.271707,0.126732,1.788776,6.263776,0.719871,0.299191,0.103343,0.828307,4.459294,0.583335,0.231713,0.101193,0.311515,1.590637,0.265845,0.115660,0.137452,33.458508,2.787727,2.954887,0.386425,0.166476,1.702622,3.865315,0.696814,0.611925,0.120444,1.339302,14.657542,1.054843,0.849700,0.185622,0.770840,2.872819,0.217462,0.356191,0.127371,0.622724,1.660725,0.245070,0.137600,0.154308,5.647038,6.532359,1.011735,0.458481,0.259835,1.960499,7.934125,0.584195,0.581497,0.205949,1.100598,4.336043,0.354055,0.404269,0.250894,31.269163,7.925483,3.821333,1.597588,0.835053
1676058951.462223,1676058951.463232,63.000000,0.000000,4294.102539,4296.153809,4308.846191,4298.461426,4294.358887,4181.666504,4265.769043,4284.230957,4274.102539,4271.153809,4436.153809,4488.205078,4366.153809,4405.256348,0.000000,4.000000,90.000000,,,,0.000000,4.000000,4.000000,4.000000,4.000000,4.000000,4.000000,4.000000,4.000000,4.000000,4.000000,4.000000,4.000000,4.000000,4.000000,100.000000,,,,,,,,,,,,,,,,,,,,,,,,,,,,,,,,,,,,,,,,,,,,,,,,,,,,,,,,,,,,,,,,,,,,,,,,,,,,,,,,,,,,,,
1676058951.470031,1676058951.470940,64.000000,0.000000,4295.384766,4294.871582,4308.333496,4294.487305,4286.922852,4178.077148,4268.589844,4292.948730,4277.948730,4266.922852,4437.692383,4488.589844,4360.128418,4398.846191,2466.000000,4.000000,90.000000,,,,0.000000,4.000000,4.000000,4.000000,4.000000,4.000000,4.000000,4.000000,4.000000,4.000000,4.000000,4.000000,4.000000,4.000000,4.000000,100.000000,,,,,,,,,,,,,,,,,,,,,,,,,,,,,,,,,,,,,,,,,,,,,,,,,,,,,,,,,,,,,,,,,,,,,,,,,,,,,,,,,,,,,,
1676058951.477840,1676058951.478749,65.000000,0.000000,4288.589844,4285.384766,4304.743652,4284.230957,4284.487305,4182.948730,4283.077148,4300.641113,4282.948730,4274.358887,4434.871582,4485.384766,4360.897461,4394.871582,2499.000000,4.000000,90.000000,,,,0.000000,4.000000,4.000000,4.000000,4.000000,4.000000,4.000000,4.000000,4.000000,4.000000,4.000000,4.000000,4.000000,4.000000,4.000000,100.000000,,,,,,,,,,,,,,,,,,,,,,,,,,,,,,,,,,,,,,,,,,,,,,,,,,,,,,,,,,,,,,,,,,,,,,,,,,,,,,,,,,,,,,
1676058951.485648,1676058951.486457,66.000000,0.000000,4277.948730,4273.461426,4293.333496,4278.205078,4286.025879,4188.461426,4291.538574,4300.000000,4282.692383,4273.333496,4427.307617,4477.436035,4359.358887,4393.461426,2322.000000,4.000000,90.000000,,,,0.000000,4.000000,4.000000,4.000000,4.000000,4.000000,4.000000,4.000000,4.000000,4.000000,4.000000,4.000000,4.000000,4.000000,4.000000,100.000000,,,,,,,,,,,,,,,,,,,,,,,,,,,,,,,,,,,,,,,,,,,,,,,,,,,,,,,,,,,,,,,,,,,,,,,,,,,,,,,,,,,,,,
1676058951.493456,1676058951.494266,67.000000,0.000000,4272.051270,4265.897461,4281.922852,4277.563965,4285.128418,4199.743652,4301.666504,4297.179688,4279.358887,4258.717773,4420.256348,4471.025879,4347.436035,4383.333496,2284.000000,4.000000,90.000000,,,,0.000000,4.000000,4.000000,4.000000,4.000000,4.000000,4.000000,4.000000,4.000000,4.000000,4.000000,4.000000,4.000000,4.000000,4.000000,100.000000,,,,,,,,,,,,,,,,,,,,,,,,,,,,,,,,,,,,,,,,,,,,,,,,,,,,,,,,,,,,,,,,,,,,,,,,,,,,,,,,,,,,,,
1676058951.501265,1676058951.501974,68.000000,0.000000,4272.563965,4269.871582,4287.307617,4277.948730,4290.000000,4214.487305,4318.461426,4302.179688,4277.179688,4256.153809,4417.692383,4470.512695,4334.743652,4373.846191,2338.000000,4.000000,90.000000,,,,0.000000,4.000000,4.000000,4.000000,4.000000,4.000000,4.000000,4.000000,4.000000,4.000000,4.000000,4.000000,4.000000,4.000000,4.000000,100.000000,,,,,,,,,,,,,,,,,,,,,,,,,,,,,,,,,,,,,,,,,,,,,,,,,,,,,,,,,,,,,,,,,,,,,,,,,,,,,,,,,,,,,,
1676058951.509073,1676058951.509882,69.000000,0.000000,4281.410156,4285.769043,4301.794922,4285.769043,4300.256348,4219.358887,4327.563965,4306.025879,4285.256348,4270.128418,4426.153809,4477.051270,4345.641113,4387.948730,2419.000000,4.000000,90.000000,,,,0.000000,4.000000,4.000000,4.000000,4.000000,4.000000,4.000000,4.000000,4.000000,4.000000,4.000000,4.000000,4.000000,4.000000,4.000000,100.000000,,,,,,,,,,,,,,,,,,,,,,,,,,,,,,,,,,,,,,,,,,,,,,,,,,,,,,,,,,,,,,,,,,,,,,,,,,,,,,,,,,,,,,
1676058951.516882,1676058951.517691,70.000000,0.000000,4287.436035,4287.563965,4307.563965,4295.128418,4302.179688,4219.871582,4328.717773,4305.128418,4291.666504,4278.846191,4440.000000,4487.563965,4367.692383,4406.922852,2348.000000,4.000000,90.000000,,,,0.000000,4.000000,4.000000,4.000000,4.000000,4.000000,4.000000,4.000000,4.000000,4.000000,4.000000,4.000000,4.000000,4.000000,4.000000,100.000000,,,,,,,,,,,,,,,,,,,,,,,,,,,,,,,,,,,,,,,,,,,,,,,,,,,,,,,,,,,,,,,,,,,,,,,,,,,,,,,,,,,,,,
1676058951.524690,1676058951.525499,71.000000,0.000000,4287.179688,4285.641113,4307.179688,4295.512695,4302.436035,4217.436035,4326.410156,4304.615234,4285.512695,4279.358887,4442.436035,4491.666504,4367.563965,4406.666504,2436.000000,4.000000,90.000000,,,,0.000000,4.000000,4.000000,4.000000,4.000000,4.000000,4.000000,4.000000,4.000000,4.000000,4.000000,4.000000,4.000000,4.000000,4.000000,100.000000,,,,,,,,,,,,,,,,,,,,,,,,,,,,,,,,,,,,,,,,,,,,,,,,,,,,,,,,,,,,,,,,,,,,,,,,,,,,,,,,,,,,,,
1676058951.532498,1676058951.533208,72.000000,0.000000,4291.410156,4298.333496,4313.205078,4293.974121,4304.871582,4206.922852,4315.641113,4303.846191,4281.025879,4277.820313,4438.589844,4487.692383,4358.461426,4398.846191,2378.000000,4.000000,90.000000,,,,0.000000,4.000000,4.000000,4.000000,4.000000,4.000000,4.000000,4.000000,4.000000,4.000000,4.000000,4.000000,4.000000,4.000000,4.000000,100.000000,,,,,,,,,,,,,,,,,,,,,,,,,,,,,,,,,,,,,,,,,,,,,,,,,,,,,,,,,,,,,,,,,,,,,,,,,,,,,,,,,,,,,,
1676058951.540307,1676058951.541116,73.000000,0.000000,4300.000000,4302.563965,4319.871582,4298.333496,4298.974121,4201.282227,4303.974121,4294.615234,4281.794922,4272.436035,4432.051270,4488.205078,4356.153809,4395.512695,2426.000000,4.000000,90.000000,,,,0.000000,4.000000,4.000000,4.000000,4.000000,4.000000,4.000000,4.000000,4.000000,4.000000,4.000000,4.000000,4.000000,4.000000,4.000000,100.000000,,,,,,,,,,,,,,,,,,,,,,,,,,,,,,,,,,,,,,,,,,,,,,,,,,,,,,,,,,,,,,,,,,,,,,,,,,,,,,,,,,,,,,
1676058951.548115,1676058951.548925,74.000000,0.000000,4308.589844,4300.000000,4319.487305,4303.974121,4297.436035,4198.589844,4295.897461,4280.769043,4276.666504,4264.487305,4425.256348,4490.384766,4359.230957,4403.077148,2710.000000,4.000000,90.000000,,,,0.000000,4.000000,4.000000,4.000000,4.000000,4.000000,4.000000,4.000000,4.000000,4.000000,4.000000,4.000000,4.000000,4.000000,4.000000,100.000000,,,,,,,,,,,,,,,,,,,,,,,,,,,,,,,,,,,,,,,,,,,,,,,,,,,,,,,,,,,,,,,,,,,,,,,,,,,,,,,,,,,,,,
1676058951.555924,1676058951.556833,75.000000,0.000000,4316.794922,4308.717773,4322.307617,4308.461426,4302.820313,4190.256348,4291.025879,4280.256348,4271.794922,4264.615234,4430.769043,4489.487305,4366.666504,4415.128418,2910.000000,4.000000,90.000000,,,,0.000000,4.000000,4.000000,4.000000,4.000000,4.000000,4.000000,4.000000,4.000000,4.000000,4.000000,4.000000,4.000000,4.000000,4.000000,100.000000,,,,,,,,,,,,,,,,,,,,,,,,,,,,,,,,,,,,,,,,,,,,,,,,,,,,,,,,,,,,,,,,,,,,,,,,,,,,,,,,,,,,,,
1676058951.563732,1676058951.564642,76.000000,0.000000,4320.256348,4312.436035,4330.641113,4310.512695,4304.871582,4185.000000,4297.051270,4291.153809,4277.692383,4273.333496,4442.820313,4497.051270,4371.153809,4416.153809,3134.000000,4.000000,90.000000,,,,0.000000,4.000000,4.000000,4.000000,4.000000,4.000000,4.000000,4.000000,4.000000,4.000000,4.000000,4.000000,4.000000,4.000000,4.000000,100.000000,,,,,,,,,,,,,,,,,,,,,,,,,,,,,,,,,,,,,,,,,,,,,,,,,,,,,,,,,,,,,,,,,,,,,,,,,,,,,,,,,,,,,,
1676058951.571540,1676058951.572550,77.000000,0.000000,4324.230957,4314.743652,4337.563965,4315.256348,4308.205078,4190.000000,4304.743652,4297.563965,4287.563965,4280.512695,4448.846191,4508.333496,4373.205078,4414.743652,3211.000000,4.000000,90.000000,,,,0.000000,4.000000,4.000000,4.000000,4.000000,4.000000,4.000000,4.000000,4.000000,4.000000,4.000000,4.000000,4.000000,4.000000,4.000000,100.000000,,,,,,,,,,,,,,,,,,,,,,,,,,,,,,,,,,,,,,,,,,,,,,,,,,,,,,,,,,,,,,,,,,,,,,,,,,,,,,,,,,,,,,
1676058951.579349,1676058951.580358,78.000000,0.000000,4332.563965,4328.077148,4337.820313,4322.948730,4310.384766,4187.051270,4300.128418,4302.820313,4294.871582,4286.025879,4453.077148,4511.922852,4379.358887,4428.077148,2710.000000,4.000000,90.000000,,,,0.000000,4.000000,4.000000,4.000000,4.000000,4.000000,4.000000,4.000000,4.000000,4.000000,4.000000,4.000000,4.000000,4.000000,4.000000,100.000000,1.000000,58.333332,4.000000,4.000000,4.000000,4.000000,4.000000,0.000000,4.000000,4.000000,4.000000,4.000000,4.000000,4.000000,4.000000,3.000000,1.702038,4.624795,0.776550,0.305765,0.096527,1.986274,2.955604,0.579268,0.292891,0.144507,1.912276,5.155258,0.871174,0.318676,0.128662,0.903225,3.605967,0.743811,0.239476,0.095495,0.351202,1.338120,0.300699,0.120404,0.127088,68.475906,5.086688,5.550048,0.560081,0.241348,1.824941,3.954843,0.854931,0.755083,0.122638,1.268567,10.845111,1.194573,0.850360,0.193766,0.762958,2.274650,0.280964,0.357291,0.131553,0.706577,1.635188,0.298246,0.140224,0.173062,5.694347,5.812466,1.194355,0.489868,0.246292,2.167232,6.858414,0.774016,0.600241,0.214202,1.427098,4.205417,0.432797,0.431547,0.273660,23.077599,6.874103,2.864123,1.224553,0.653598
1676058951.587157,1676058951.588267,79.000000,0.000000,4328.461426,4327.563965,4335.128418,4321.538574,4303.077148,4173.205078,4293.717773,4312.436035,4297.436035,4285.897461,4455.641113,4512.051270,4379.615234,4433.589844,2910.000000,4.000000,90.000000,,,,0.000000,4.000000,4.000000,4.000000,4.000000,4.000000,4.000000,4.000000,4.000000,4.000000,4.000000,4.000000,4.000000,4.000000,4.000000,100.000000,,,,,,,,,,,,,,,,,,,,,,,,,,,,,,,,,,,,,,,,,,,,,,,,,,,,,,,,,,,,,,,,,,,,,,,,,,,,,,,,,,,,,,
1676058951.594966,1676058951.596075,80.000000,0.000000,4313.846191,4315.128418,4328.846191,4313.205078,4296.410156,4170.128418,4297.820313,4314.871582,4295.128418,4277.307617,4447.436035,4504.358887,4369.487305,4416.666504,3134.000000,4.000000,90.000000,,,,0.000000,4.000000,4.000000,4.000000,4.000000,4.000000,4.000000,4.000000,4.000000,4.000000,4.000000,4.000000,4.000000,4.000000,4.000000,100.000000,,,,,,,,,,,,,,,,,,,,,,,,,,,,,,,,,,,,,,,,,,,,,,,,,,,,,,,,,,,,,,,,,,,,,,,,,,,,,,,,,,,,,,
1676058951.602774,1676058951.603983,81.000000,0.000000,4311.153809,4312.307617,4318.333496,4305.128418,4298.077148,4180.897461,4307.307617,4310.512695,4292.051270,4276.282227,4443.077148,4494.358887,4371.922852,4411.410156,3211.000000,4.000000,90.000000,,,,0.000000,4.000000,4.000000,4.000000,4.000000,4.000000,4.000000,4.000000,4.000000,4.000000,4.000000,4.000000,4.000000,4.000000,4.000000,100.000000,,,,,,,,,,,,,,,,,,,,,,,,,,,,,,,,,,,,,,,,,,,,,,,,,,,,,,,,,,,,,,,,,,,,,,,,,,,,,,,,,,,,,,
1676058951.610582,1676058951.611792,82.000000,0.000000,4309.230957,4305.512695,4308.589844,4297.820313,4298.846191,4188.589844,4311.410156,4307.051270,4287.051270,4277.820313,4444.230957,4491.794922,4370.641113,4410.641113,2710.000000,4.000000,90.000000,,,,0.000000,4.000000,4.000000,4.000000,4.000000,4.000000,4.000000,4.000000,4.000000,4.000000,4.000000,4.000000,4.000000,4.000000,4.000000,100.000000,,,,,,,,,,,,,,,,,,,,,,,,,,,,,,,,,,,,,,,,,,,,,,,,,,,,,,,,,,,,,,,,,,,,,,,,,,,,,,,,,,,,,,
1676058951.618391,1676058951.619700,83.000000,0.000000,4297.051270,4295.128418,4301.025879,4294.230957,4296.666504,4183.846191,4306.025879,4300.128418,4277.563965,4267.563965,4435.512695,4485.000000,4355.512695,4398.589844,2910.000000,4.000000,90.000000,,,,0.000000,4.000000,4.000000,4.000000,4.000000,4.000000,4.000000,4.000000,4.000000,4.000000,4.000000,4.000000,4.000000,4.000000,4.000000,100.000000,,,,,,,,,,,,,,,,,,,,,,,,,,,,,,,,,,,,,,,,,,,,,,,,,,,,,,,,,,,,,,,,,,,,,,,,,,,,,,,,,,,,,,
1676058951.626199,1676058951.627509,84.000000,0.000000,4291.153809,4296.282227,4297.051270,4292.051270,4297.179688,4181.153809,4305.384766,4295.128418,4277.563965,4261.282227,4430.512695,4476.922852,4354.230957,4393.717773,3134.000000,4.000000,90.000000,,,,0.000000,4.000000,4.000000,4.000000,4.000000,4.000000,4.000000,4.000000,4.000000,4.000000,4.000000,4.000000,4.000000,4.000000,4.000000,100.000000,,,,,,,,,,,,,,,,,,,,,,,,,,,,,,,,,,,,,,,,,,,,,,,,,,,,,,,,,,,,,,,,,,,,,,,,,,,,,,,,,,,,,,
1676058951.634008,1676058951.635217,85.000000,0.000000,4292.051270,4299.615234,4296.153809,4287.948730,4297.563965,4184.871582,4310.897461,4289.230957,4280.256348,4263.974121,4429.743652,4476.153809,4359.230957,4393.589844,3211.000000,4.000000,90.000000,,,,0.000000,4.000000,4.000000,4.000000,4.000000,4.000000,4.000000,4.000000,4.000000,4.000000,4.000000,4.000000,4.000000,4.000000,4.000000,100.000000,,,,,,,,,,,,,,,,,,,,,,,,,,,,,,,,,,,,,,,,,,,,,,,,,,,,,,,,,,,,,,,,,,,,,,,,,,,,,,,,,,,,,,
1676058951.641816,1676058951.643026,86.000000,0.000000,4289.230957,4297.051270,4294.102539,4289.102539,4298.846191,4181.538574,4304.102539,4277.307617,4268.333496,4259.871582,4422.436035,4470.128418,4354.487305,4385.769043,2710.000000,4.000000,90.000000,,,,0.000000,4.000000,4.000000,4.000000,4.000000,4.000000,4.000000,4.000000,4.000000,4.000000,4.000000,4.000000,4.000000,4.000000,4.000000,100.000000,,,,,,,,,,,,,,,,,,,,,,,,,,,,,,,,,,,,,,,,,,,,,,,,,,,,,,,,,,,,,,,,,,,,,,,,,,,,,,,,,,,,,,
1676058951.649624,1676058951.650734,87.000000,0.000000,4289.102539,4299.230957,4294.871582,4295.641113,4306.666504,4172.948730,4298.077148,4272.179688,4257.436035,4256.282227,4420.000000,4462.563965,4347.820313,4380.384766,2910.000000,4.000000,90.000000,,,,0.000000,4.000000,4.000000,4.000000,4.000000,4.000000,4.000000,4.000000,4.000000,4.000000,4.000000,4.000000,4.000000,4.000000,4.000000,100.000000,,,,,,,,,,,,,,,,,,,,,,,,,,,,,,,,,,,,,,,,,,,,,,,,,,,,,,,,,,,,,,,,,,,,,,,,,,,,,,,,,,,,,,
1676058951.657433,1676058951.658543,88.000000,0.000000,4296.666504,4305.769043,4304.487305,4297.563965,4311.666504,4169.230957,4307.307617,4278.461426,4266.666504,4262.563965,4426.153809,4471.153809,4350.512695,4385.897461,3134.000000,4.000000,90.000000,,,,0.000000,4.000000,4.000000,4.000000,4.000000,4.000000,4.000000,4.000000,4.000000,4.000000,4.000000,4.000000,4.000000,4.000000,4.000000,100.000000,,,,,,,,,,,,,,,,,,,,,,,,,,,,,,,,,,,,,,,,,,,,,,,,,,,,,,,,,,,,,,,,,,,,,,,,,,,,,,,,,,,,,,
1676058951.665241,1676058951.666251,89.000000,0.000000,4302.179688,4303.846191,4313.333496,4295.897461,4305.128418,4170.641113,4308.205078,4287.563965,4279.358887,4268.846191,4433.333496,4484.358887,4359.487305,4391.794922,3211.000000,4.000000,90.000000,,,,0.000000,4.000000,4.000000,4.000000,4.000000,4.000000,4.000000,4.000000,4.000000,4.000000,4.000000,4.000000,4.000000,4.000000,4.000000,100.000000,,,,,,,,,,,,,,,,,,,,,,,,,,,,,,,,,,,,,,,,,,,,,,,,,,,,,,,,,,,,,,,,,,,,,,,,,,,,,,,,,,,,,,
1676058951.673050,1676058951.674060,90.000000,0.000000,4301.666504,4296.025879,4312.307617,4296.153809,4296.922852,4164.743652,4296.538574,4294.615234,4279.743652,4273.846191,4439.743652,4489.871582,4365.384766,4396.282227,2710.000000,4.000000,90.000000,,,,0.000000,4.000000,4.000000,4.000000,4.000000,4.000000,4.000000,4.000000,4.000000,4.000000,4.000000,4.000000,4.000000,4.000000,4.000000,100.000000,,,,,,,,,,,,,,,,,,,,,,,,,,,,,,,,,,,,,,,,,,,,,,,,,,,,,,,,,,,,,,,,,,,,,,,,,,,,,,,,,,,,,,
1676058951.680858,1676058951.681768,91.000000,0.000000,4298.205078,4295.128418,4311.025879,4297.051270,4297.179688,4158.974121,4294.358887,4301.282227,4280.512695,4279.615234,4445.256348,4491.025879,4365.000000,4403.974121,2910.000000,4.000000,90.000000,,,,0.000000,4.000000,4.000000,4.000000,4.000000,4.000000,4.000000,4.000000,4.000000,4.000000,4.000000,4.000000,4.000000,4.000000,4.000000,100.000000,,,,,,,,,,,,,,,,,,,,,,,,,,,,,,,,,,,,,,,,,,,,,,,,,,,,,,,,,,,,,,,,,,,,,,,,,,,,,,,,,,,,,,
1676058951.688666,1676058951.689577,92.000000,0.000000,4295.128418,4295.512695,4312.051270,4297.307617,4298.077148,4163.333496,4298.205078,4305.769043,4290.128418,4281.410156,4447.307617,4490.000000,4364.743652,4410.128418,3134.000000,4.000000,90.000000,,,,0.000000,4.000000,4.000000,4.000000,4.000000,4.000000,4.000000,4.000000,4.000000,4.000000,4.000000,4.000000,4.000000,4.000000,4.000000,100.000000,,,,,,,,,,,,,,,,,,,,,,,,,,,,,,,,,,,,,,,,,,,,,,,,,,,,,,,,,,,,,,,,,,,,,,,,,,,,,,,,,,,,,,
1676058951.696475,1676058951.697285,93.000000,0.000000,4299.487305,4287.051270,4313.974121,4295.512695,4296.153809,4168.846191,4298.589844,4310.641113,4299.487305,4286.922852,4456.025879,4498.077148,4372.820313,4413.333496,3211.000000,4.000000,90.000000,,,,0.000000,4.000000,4.000000,4.000000,4.000000,4.000000,4.000000,4.000000,4.000000,4.000000,4.000000,4.000000,4.000000,4.000000,4.000000,100.000000,,,,,,,,,,,,,,,,,,,,,,,,,,,,,,,,,,,,,,,,,,,,,,,,,,,,,,,,,,,,,,,,,,,,,,,,,,,,,,,,,,,,,,
1676058951.704283,1676058951.705094,94.000000,0.000000,4310.256348,4278.461426,4313.589844,4296.794922,4295.256348,4165.512695,4298.205078,4310.897461,4300.128418,4290.384766,4463.846191,4507.820313,4376.922852,4415.769043,2710.000000,4.000000,90.000000,,,,0.000000,4.000000,4.000000,4.000000,4.000000,4.000000,4.000000,4.000000,4.000000,4.000000,4.000000,4.000000,4.000000,4.000000,4.000000,100.000000,,,,,,,,,,,,,,,,,2.014478,3.817210,0.869611,0.355217,0.096167,2.220463,2.309588,0.679072,0.297360,0.173341,2.157926,4.062100,1.011920,0.330689,0.157259,1.070122,2.768060,0.879839,0.249052,0.096071,0.407913,1.096002,0.321423,0.125700,0.113244,113.900848,8.219150,8.605538,0.733488,0.330872,1.779444,4.028210,1.028127,0.905622,0.125808,1.251098,7.410375,1.286307,0.849933,0.201457,0.798417,1.926232,0.348275,0.354005,0.136426,0.828543,1.658344,0.353423,0.142663,0.187246,5.372277,4.890712,1.334590,0.485306,0.245216,2.518702,5.616055,0.948166,0.571288,0.216536,1.851359,3.986810,0.538121,0.433456,0.303861,15.093899,5.652058,1.961658,0.854362,0.492111
1676058951.712092,1676058951.712802,95.000000,0.000000,4307.436035,4280.000000,4305.897461,4297.692383,4288.205078,4155.897461,4293.717773,4305.128418,4295.384766,4285.256348,4453.589844,4498.589844,4368.589844,4414.743652,2910.000000,4.000000,90.000000,,,,0.000000,4.000000,4.000000,4.000000,4.000000,4.000000,4.000000,4.000000,4.000000,4.000000,4.000000,4.000000,4.000000,4.000000,4.000000,100.000000,,,,,,,,,,,,,,,,,,,,,,,,,,,,,,,,,,,,,,,,,,,,,,,,,,,,,,,,,,,,,,,,,,,,,,,,,,,,,,,,,,,,,,
1676058951.719900,1676058951.720711,96.000000,0.000000,4287.051270,4276.794922,4293.846191,4288.077148,4281.538574,4152.820313,4293.717773,4302.051270,4292.820313,4278.846191,4443.205078,4481.282227,4359.487305,4404.102539,3134.000000,4.000000,90.000000,,,,0.000000,4.000000,4.000000,4.000000,4.000000,4.000000,4.000000,4.000000,4.000000,4.000000,4.000000,4.000000,4.000000,4.000000,4.000000,100.000000,,,,,,,,,,,,,,,,,,,,,,,,,,,,,,,,,,,,,,,,,,,,,,,,,,,,,,,,,,,,,,,,,,,,,,,,,,,,,,,,,,,,,,
1676058951.727708,1676058951.728519,97.000000,0.000000,4275.000000,4266.794922,4284.743652,4279.487305,4287.692383,4163.077148,4303.589844,4300.384766,4287.948730,4270.512695,4439.102539,4474.102539,4350.769043,4390.256348,3211.000000,4.000000,90.000000,,,,0.000000,4.000000,4.000000,4.000000,4.000000,4.000000,4.000000,4.000000,4.000000,4.000000,4.000000,4.000000,4.000000,4.000000,4.000000,100.000000,,,,,,,,,,,,,,,,,,,,,,,,,,,,,,,,,,,,,,,,,,,,,,,,,,,,,,,,,,,,,,,,,,,,,,,,,,,,,,,,,,,,,,
1676058951.735517,1676058951.736427,98.000000,0.000000,4280.000000,4266.794922,4283.077148,4280.641113,4293.974121,4172.563965,4308.974121,4297.179688,4281.025879,4268.077148,4435.897461,4474.615234,4349.743652,4394.102539,2710.000000,4.000000,90.000000,,,,0.000000,4.000000,4.000000,4.000000,4.000000,4.000000,4.000000,4.000000,4.000000,4.000000,4.000000,4.000000,4.000000,4.000000,4.000000,100.000000,,,,,,,,,,,,,,,,,,,,,,,,,,,,,,,,,,,,,,,,,,,,,,,,,,,,,,,,,,,,,,,,,,,,,,,,,,,,,,,,,,,,,,
1676058951.743325,1676058951.744236,99.000000,0.000000,4280.897461,4267.948730,4287.051270,4281.410156,4292.948730,4169.871582,4307.051270,4297.820313,4280.128418,4272.692383,4441.153809,4474.871582,4360.512695,4405.641113,2910.000000,4.000000,90.000000,,,,0.000000,4.000000,4.000000,4.000000,4.000000,4.000000,4.000000,4.000000,4.000000,4.000000,4.000000,4.000000,4.000000,4.000000,4.000000,100.000000,,,,,,,,,,,,,,,,,,,,,,,,,,,,,,,,,,,,,,,,,,,,,,,,,,,,,,,,,,,,,,,,,,,,,,,,,,,,,,,,,,,,,,
1676058951.751134,1676058951.752144,100.000000,0.000000,4277.307617,4265.000000,4296.153809,4283.077148,4293.461426,4168.717773,4308.974121,4301.025879,4280.769043,4270.769043,4447.436035,4475.769043,4360.512695,4401.282227,3134.000000,4.000000,90.000000,,,,0.000000,4.000000,4.000000,4.000000,4.000000,4.000000,4.000000,4.000000,4.000000,4.000000,4.000000,4.000000,4.000000,4.000000,4.000000,100.000000,,,,,,,,,,,,,,,,,,,,,,,,,,,,,,,,,,,,,,,,,,,,,,,,,,,,,,,,,,,,,,,,,,,,,,,,,,,,,,,,,,,,,,
1676058951.758942,1676058951.759953,101.000000,0.000000,4288.461426,4277.179688,4308.077148,4293.077148,4294.871582,4171.922852,4309.871582,4296.922852,4278.205078,4264.487305,4442.948730,4476.922852,4354.230957,4397.563965,3211.000000,4.000000,90.000000,,,,0.000000,4.000000,4.000000,4.000000,4.000000,4.000000,4.000000,4.000000,4.000000,4.000000,4.000000,4.000000,4.000000,4.000000,4.000000,100.000000,,,,,,,,,,,,,,,,,,,,,,,,,,,,,,,,,,,,,,,,,,,,,,,,,,,,,,,,,,,,,,,,,,,,,,,,,,,,,,,,,,,,,,
1676058951.766750,1676058951.767861,102.000000,0.000000,4302.307617,4291.410156,4312.436035,4298.589844,4292.307617,4170.000000,4303.589844,4289.743652,4277.307617,4265.000000,4445.512695,4479.615234,4367.051270,4410.384766,2710.000000,4.000000,90.000000,,,,0.000000,4.000000,4.000000,4.000000,4.000000,4.000000,4.000000,4.000000,4.000000,4.000000,4.000000,4.000000,4.000000,4.000000,4.000000,100.000000,,,,,,,,,,,,,,,,,,,,,,,,,,,,,,,,,,,,,,,,,,,,,,,,,,,,,,,,,,,,,,,,,,,,,,,,,,,,,,,,,,,,,,
1676058951.774559,1676058951.775669,103.000000,0.000000,4299.358887,4288.077148,4310.384766,4297.051270,4293.846191,4169.358887,4303.846191,4292.179688,4276.794922,4269.358887,4456.282227,4482.820313,4375.512695,4417.307617,2910.000000,4.000000,90.000000,,,,0.000000,4.000000,4.000000,4.000000,4.000000,4.000000,4.000000,4.000000,4.000000,4.000000,4.000000,4.000000,4.000000,4.000000,4.000000,100.000000,,,,,,,,,,,,,,,,,,,,,,,,,,,,,,,,,,,,,,,,,,,,,,,,,,,,,,,,,,,,,,,,,,,,,,,,,,,,,,,,,,,,,,
1676058951.782367,1676058951.783578,104.000000,0.000000,4297.051270,4287.307617,4317.307617,4302.051270,4298.589844,4168.846191,4312.051270,4300.256348,4277.179688,4275.641113,4457.563965,4488.717773,4372.051270,4418.077148,3134.000000,4.000000,90.000000,,,,0.000000,4.000000,4.000000,4.000000,4.000000,4.000000,4.000000,4.000000,4.000000,4.000000,4.000000,4.000000,4.000000,4.000000,4.000000,100.000000,,,,,,,,,,,,,,,,,,,,,,,,,,,,,,,,,,,,,,,,,,,,,,,,,,,,,,,,,,,,,,,,,,,,,,,,,,,,,,,,,,,,,,
1676058951.790175,1676058951.791386,105.000000,0.000000,4308.205078,4296.025879,4329.487305,4308.974121,4297.563965,4161.282227,4309.487305,4306.922852,4287.179688,4282.692383,4463.205078,4499.615234,4380.128418,4426.922852,3211.000000,4.000000,90.000000,,,,0.000000,4.000000,4.000000,4.000000,4.000000,4.000000,4.000000,4.000000,4.000000,4.000000,4.000000,4.000000,4.000000,4.000000,4.000000,100.000000,,,,,,,,,,,,,,,,,,,,,,,,,,,,,,,,,,,,,,,,,,,,,,,,,,,,,,,,,,,,,,,,,,,,,,,,,,,,,,,,,,,,,,
1676058951.797984,1676058951.799295,106.000000,0.000000,4315.256348,4296.794922,4328.205078,4310.769043,4294.358887,4154.871582,4297.436035,4310.769043,4297.307617,4285.000000,4473.974121,4507.692383,4386.922852,4430.897461,2710.000000,4.000000,90.000000,,,,0.000000,4.000000,4.000000,4.000000,4.000000,4.000000,4.000000,4.000000,4.000000,4.000000,4.000000,4.000000,4.000000,4.000000,4.000000,100.000000,,,,,,,,,,,,,,,,,,,,,,,,,,,,,,,,,,,,,,,,,,,,,,,,,,,,,,,,,,,,,,,,,,,,,,,,,,,,,,,,,,,,,,
1676058951.805792,1676058951.807103,107.000000,0.000000,4315.384766,4295.512695,4326.922852,4312.179688,4295.897461,4155.769043,4292.436035,4313.205078,4297.563965,4290.769043,4478.461426,4511.282227,4390.897461,4430.384766,2910.000000,4.000000,90.000000,,,,0.000000,4.000000,4.000000,4.000000,4.000000,4.000000,4.000000,4.000000,4.000000,4.000000,4.000000,4.000000,4.000000,4.000000,4.000000,100.000000,,,,,,,,,,,,,,,,,,,,,,,,,,,,,,,,,,,,,,,,,,,,,,,,,,,,,,,,,,,,,,,,,,,,,,,,,,,,,,,,,,,,,,
1676058951.813601,1676058951.815011,108.000000,0.000000,4314.487305,4293.461426,4330.000000,4309.871582,4298.205078,4154.615234,4291.666504,4315.512695,4298.589844,4296.025879,4478.974121,4506.538574,4394.102539,4431.410156,3134.000000,4.000000,90.000000,,,,0.000000,4.000000,4.000000,4.000000,4.000000,4.000000,4.000000,4.000000,4.000000,4.000000,4.000000,4.000000,4.000000,4.000000,4.000000,100.000000,,,,,,,,,,,,,,,,,,,,,,,,,,,,,,,,,,,,,,,,,,,,,,,,,,,,,,,,,,,,,,,,,,,,,,,,,,,,,,,,,,,,,,
1676058951.821409,1676058951.822820,109.000000,0.000000,4306.153809,4289.743652,4320.769043,4302.051270,4296.153809,4152.436035,4288.589844,4311.538574,4307.051270,4292.563965,4470.641113,4495.000000,4384.487305,4424.102539,3211.000000,4.000000,90.000000,,,,0.000000,4.000000,4.000000,4.000000,4.000000,4.000000,4.000000,4.000000,4.000000,4.000000,4.000000,4.000000,4.000000,4.000000,4.000000,100.000000,,,,,,,,,,,,,,,,,,,,,,,,,,,,,,,,,,,,,,,,,,,,,,,,,,,,,,,,,,,,,,,,,,,,,,,,,,,,,,,,,,,,,,
1676058951.829217,1676058951.830528,110.000000,0.000000,4297.051270,4289.358887,4307.051270,4296.153809,4291.282227,4153.974121,4289.615234,4303.589844,4303.461426,4287.436035,4457.820313,4489.615234,4372.820313,4415.769043,2710.000000,4.000000,90.000000,,,,0.000000,4.000000,4.000000,4.000000,4.000000,4.000000,4.000000,4.000000,4.000000,4.000000,4.000000,4.000000,4.000000,4.000000,4.000000,100.000000,,,,,,,,,,,,,,,,,2.409282,3.160183,0.917100,0.387569,0.094644,2.668289,1.844815,0.737815,0.280365,0.204282,2.499405,3.142227,1.101709,0.329774,0.182089,1.326932,2.052284,0.962627,0.255595,0.097692,0.462526,0.884370,0.330349,0.129428,0.097077,157.987274,11.456578,11.278969,0.861933,0.408003,1.592073,4.131204,1.234600,1.039129,0.128245,1.319322,5.065192,1.263943,0.833144,0.205148,0.887597,1.830905,0.390772,0.349020,0.141962,0.969269,1.687201,0.396315,0.150563,0.191985,4.965317,3.924612,1.403284,0.454671,0.249402,2.996082,4.438832,1.057140,0.506587,0.209456,2.304875,3.677306,0.652757,0.417749,0.328573,9.338207,4.506053,1.331588,0.583466,0.380289
1676058951.837026,1676058951.838337,111.000000,0.000000,4295.256348,4285.384766,4304.230957,4295.000000,4288.846191,4154.230957,4293.205078,4300.000000,4284.358887,4283.333496,4456.794922,4485.769043,4370.384766,4415.897461,2910.000000,4.000000,90.000000,,,,0.000000,4.000000,4.000000,4.000000,4.000000,4.000000,4.000000,4.000000,4.000000,4.000000,4.000000,4.000000,4.000000,4.000000,4.000000,100.000000,,,,,,,,,,,,,,,,,,,,,,,,,,,,,,,,,,,,,,,,,,,,,,,,,,,,,,,,,,,,,,,,,,,,,,,,,,,,,,,,,,,,,,
1676058951.844834,1676058951.846045,112.000000,0.000000,4292.307617,4276.410156,4307.179688,4294.230957,4291.282227,4160.256348,4298.974121,4302.307617,4279.615234,4278.974121,4460.641113,4479.102539,4366.282227,4414.871582,3134.000000,4.000000,90.000000,,,,0.000000,4.000000,4.000000,4.000000,4.000000,4.000000,4.000000,4.000000,4.000000,4.000000,4.000000,4.000000,4.000000,4.000000,4.000000,100.000000,,,,,,,,,,,,,,,,,,,,,,,,,,,,,,,,,,,,,,,,,,,,,,,,,,,,,,,,,,,,,,,,,,,,,,,,,,,,,,,,,,,,,,
1676058951.852643,1676058951.853954,113.000000,0.000000,4293.205078,4277.563965,4311.025879,4294.871582,4295.641113,4182.051270,4307.820313,4304.358887,4290.769043,4277.307617,4460.256348,4479.871582,4362.692383,4411.922852,3211.000000,4.000000,90.000000,,,,0.000000,4.000000,4.000000,4.000000,4.000000,4.000000,4.000000,4.000000,4.000000,4.000000,4.000000,4.000000,4.000000,4.000000,4.000000,100.000000,,,,,,,,,,,,,,,,,,,,,,,,,,,,,,,,,,,,,,,,,,,,,,,,,,,,,,,,,,,,,,,,,,,,,,,,,,,,,,,,,,,,,,
1676058951.860451,1676058951.861762,114.000000,0.000000,4304.102539,4288.717773,4314.487305,4296.410156,4297.051270,4196.666504,4307.051270,4300.384766,4290.128418,4279.871582,4467.051270,4491.922852,4370.384766,4417.307617,2710.000000,4.000000,90.000000,,,,0.000000,4.000000,4.000000,4.000000,4.000000,4.000000,4.000000,4.000000,4.000000,4.000000,4.000000,4.000000,4.000000,4.000000,4.000000,100.000000,,,,,,,,,,,,,,,,,,,,,,,,,,,,,,,,,,,,,,,,,,,,,,,,,,,,,,,,,,,,,,,,,,,,,,,,,,,,,,,,,,,,,,
1676058951.868259,1676058951.869670,115.000000,0.000000,4312.051270,4295.384766,4317.820313,4299.487305,4296.282227,4191.794922,4298.333496,4295.512695,4280.256348,4282.563965,4481.025879,4502.179688,4379.230957,4430.000000,2910.000000,4.000000,90.000000,,,,0.000000,4.000000,4.000000,4.000000,4.000000,4.000000,4.000000,4.000000,4.000000,4.000000,4.000000,4.000000,4.000000,4.000000,4.000000,100.000000,,,,,,,,,,,,,,,,,,,,,,,,,,,,,,,,,,,,,,,,,,,,,,,,,,,,,,,,,,,,,,,,,,,,,,,,,,,,,,,,,,,,,,
1676058951.876068,1676058951.877479,116.000000,0.000000,4313.333496,4297.436035,4324.615234,4310.384766,4298.205078,4185.641113,4297.179688,4292.820313,4278.077148,4282.051270,4490.769043,4507.179688,4390.641113,4442.820313,3134.000000,4.000000,90.000000,,,,0.000000,4.000000,4.000000,4.000000,4.000000,4.000000,4.000000,4.000000,4.000000,4.000000,4.000000,4.000000,4.000000,4.000000,4.000000,100.000000,,,,,,,,,,,,,,,,,,,,,,,,,,,,,,,,,,,,,,,,,,,,,,,,,,,,,,,,,,,,,,,,,,,,,,,,,,,,,,,,,,,,,,
1676058951.883876,1676058951.885287,117.000000,0.000000,4313.846191,4298.205078,4331.410156,4312.948730,4299.102539,4187.820313,4300.512695,4293.846191,4280.000000,4281.666504,4495.256348,4509.102539,4398.717773,4441.538574,3211.000000,4.000000,90.000000,,,,0.000000,4.000000,4.000000,4.000000,4.000000,4.000000,4.000000,4.000000,4.000000,4.000000,4.000000,4.000000,4.000000,4.000000,4.000000,100.000000,,,,,,,,,,,,,,,,,,,,,,,,,,,,,,,,,,,,,,,,,,,,,,,,,,,,,,,,,,,,,,,,,,,,,,,,,,,,,,,,,,,,,,
1676058951.891684,1676058951.892996,118.000000,0.000000,4311.538574,4296.666504,4329.615234,4301.282227,4295.897461,4188.205078,4299.871582,4296.410156,4282.948730,4281.538574,4492.436035,4506.922852,4388.974121,4425.000000,2710.000000,4.000000,90.000000,,,,0.000000,4.000000,4.000000,4.000000,4.000000,4.000000,4.000000,4.000000,4.000000,4.000000,4.000000,4.000000,4.000000,4.000000,4.000000,100.000000,,,,,,,,,,,,,,,,,,,,,,,,,,,,,,,,,,,,,,,,,,,,,,,,,,,,,,,,,,,,,,,,,,,,,,,,,,,,,,,,,,,,,,
1676058951.899493,1676058951.900804,119.000000,0.000000,4310.897461,4295.512695,4323.846191,4299.487305,4293.589844,4180.256348,4295.897461,4295.769043,4287.307617,4280.256348,4487.692383,4504.487305,4376.922852,4416.922852,2910.000000,4.000000,90.000000,,,,0.000000,4.000000,4.000000,4.000000,4.000000,4.000000,4.000000,4.000000,4.000000,4.000000,4.000000,4.000000,4.000000,4.000000,4.000000,100.000000,,,,,,,,,,,,,,,,,,,,,,,,,,,,,,,,,,,,,,,,,,,,,,,,,,,,,,,,,,,,,,,,,,,,,,,,,,,,,,,,,,,,,,
1676058951.907301,1676058951.908513,120.000000,0.000000,4316.410156,4299.102539,4326.282227,4309.487305,4294.487305,4170.897461,4292.051270,4301.666504,4290.384766,4285.128418,4495.000000,4507.179688,4385.000000,4430.512695,3134.000000,4.000000,90.000000,,,,0.000000,4.000000,4.000000,4.000000,4.000000,4.000000,4.000000,4.000000,4.000000,4.000000,4.000000,4.000000,4.000000,4.000000,4.000000,100.000000,,,,,,,,,,,,,,,,,,,,,,,,,,,,,,,,,,,,,,,,,,,,,,,,,,,,,,,,,,,,,,,,,,,,,,,,,,,,,,,,,,,,,,
1676058951.915110,1676058951.916421,121.000000,0.000000,4320.769043,4307.692383,4335.384766,4312.051270,4296.025879,4168.974121,4291.410156,4316.538574,4298.333496,4293.846191,4508.846191,4517.436035,4399.487305,4482.179688,3211.000000,4.000000,90.000000,,,,0.000000,4.000000,4.000000,4.000000,4.000000,4.000000,4.000000,4.000000,4.000000,4.000000,4.000000,4.000000,4.000000,4.000000,4.000000,100.000000,,,,,,,,,,,,,,,,,,,,,,,,,,,,,,,,,,,,,,,,,,,,,,,,,,,,,,,,,,,,,,,,,,,,,,,,,,,,,,,,,,,,,,
1676058951.922918,1676058951.924230,122.000000,0.000000,4320.512695,4311.153809,4337.820313,4309.743652,4296.410156,4170.897461,4289.871582,4322.307617,4304.871582,4295.128418,4511.538574,4521.410156,4394.487305,4585.512695,2710.000000,4.000000,90.000000,,,,0.000000,4.000000,4.000000,4.000000,4.000000,4.000000,4.000000,4.000000,4.000000,4.000000,4.000000,4.000000,4.000000,4.000000,4.000000,100.000000,,,,,,,,,,,,,,,,,,,,,,,,,,,,,,,,,,,,,,,,,,,,,,,,,,,,,,,,,,,,,,,,,,,,,,,,,,,,,,,,,,,,,,
1676058951.930726,1676058951.932138,123.000000,0.000000,4317.692383,4305.128418,4330.000000,4312.051270,4296.025879,4167.948730,4281.538574,4314.615234,4300.256348,4292.563965,4507.563965,4513.974121,4387.692383,4713.333496,2910.000000,4.000000,90.000000,,,,0.000000,4.000000,4.000000,4.000000,4.000000,4.000000,4.000000,4.000000,4.000000,4.000000,4.000000,4.000000,4.000000,4.000000,4.000000,100.000000,,,,,,,,,,,,,,,,,,,,,,,,,,,,,,,,,,,,,,,,,,,,,,,,,,,,,,,,,,,,,,,,,,,,,,,,,,,,,,,,,,,,,,
1676058951.938535,1676058951.939946,124.000000,0.000000,4311.922852,4298.461426,4316.794922,4307.948730,4296.666504,4166.410156,4278.846191,4307.307617,4294.230957,4290.384766,4506.794922,4503.205078,4390.769043,4796.922852,3134.000000,4.000000,90.000000,,,,0.000000,4.000000,4.000000,4.000000,4.000000,4.000000,4.000000,4.000000,4.000000,4.000000,4.000000,4.000000,4.000000,4.000000,4.000000,100.000000,,,,,,,,,,,,,,,,,,,,,,,,,,,,,,,,,,,,,,,,,,,,,,,,,,,,,,,,,,,,,,,,,,,,,,,,,,,,,,,,,,,,,,
1676058951.946343,1676058951.947855,125.000000,0.000000,4301.410156,4293.717773,4303.077148,4298.333496,4297.051270,4170.000000,4289.615234,4301.666504,4294.230957,4283.589844,4499.487305,4488.077148,4384.230957,4791.153809,3211.000000,4.000000,90.000000,,,,0.000000,4.000000,4.000000,4.000000,4.000000,4.000000,4.000000,4.000000,4.000000,4.000000,4.000000,4.000000,4.000000,4.000000,4.000000,100.000000,,,,,,,,,,,,,,,,,,,,,,,,,,,,,,,,,,,,,,,,,,,,,,,,,,,,,,,,,,,,,,,,,,,,,,,,,,,,,,,,,,,,,,
1676058951.954152,1676058951.955663,126.000000,0.000000,4284.743652,4285.000000,4295.000000,4288.333496,4293.333496,4171.410156,4296.794922,4293.846191,4292.820313,4277.179688,4481.922852,4474.487305,4365.769043,4726.410156,2710.000000,4.000000,90.000000,,,,0.000000,4.000000,4.000000,4.000000,4.000000,4.000000,4.000000,4.000000,4.000000,4.000000,4.000000,4.000000,4.000000,4.000000,4.000000,100.000000,,,,,,,,,,,,,,,,,2.859431,2.694574,0.901303,0.395069,0.092332,3.175456,1.576556,0.753189,0.248697,0.228218,2.928608,2.478864,1.116746,0.318220,0.197104,1.654469,1.500410,0.982149,0.257167,0.096254,0.502537,0.711103,0.334782,0.131211,0.080857,185.268585,13.862759,12.696341,0.910105,0.447209,1.378623,4.386472,1.480642,1.129635,0.129174,1.457412,3.988330,1.139347,0.787227,0.201491,1.012236,1.912725,0.406859,0.345595,0.147296,1.093396,1.668457,0.428222,0.170568,0.185239,4.655589,3.040554,1.402867,0.421156,0.247773,3.523545,3.483473,1.088728,0.432125,0.193043,2.686069,3.270277,0.760402,0.398492,0.337646,6.363433,3.600218,1.024791,0.443252,0.318008
1676058951.961960,1676058951.963572,127.000000,0.000000,4274.487305,4275.641113,4291.538574,4281.282227,4289.615234,4170.897461,4294.230957,4293.846191,4287.820313,4276.794922,4471.666504,4471.794922,4355.384766,4669.871582,90.000000,4.000000,90.000000,,,,0.000000,4.000000,4.000000,4.000000,4.000000,4.000000,4.000000,4.000000,4.000000,4.000000,4.000000,4.000000,4.000000,4.000000,4.000000,100.000000,,,,,,,,,,,,,,,,,,,,,,,,,,,,,,,,,,,,,,,,,,,,,,,,,,,,,,,,,,,,,,,,,,,,,,,,,,,,,,,,,,,,,,
1676058951.969768,1676058951.971380,0.000000,0.000000,4283.205078,4276.794922,4293.077148,4289.230957,4291.922852,4171.025879,4293.205078,4302.051270,4287.307617,4277.051270,4478.205078,4477.692383,4359.615234,4647.307617,2463.000000,4.000000,90.000000,,,,0.000000,4.000000,4.000000,4.000000,4.000000,4.000000,4.000000,4.000000,4.000000,4.000000,4.000000,4.000000,4.000000,4.000000,4.000000,100.000000,,,,,,,,,,,,,,,,,,,,,,,,,,,,,,,,,,,,,,,,,,,,,,,,,,,,,,,,,,,,,,,,,,,,,,,,,,,,,,,,,,,,,,
1676058951.977577,1676058951.979288,1.000000,0.000000,4294.743652,4289.487305,4304.102539,4301.794922,4297.692383,4175.512695,4303.205078,4311.666504,4295.512695,4279.102539,4490.384766,4486.794922,4367.179688,4630.384766,2499.000000,4.000000,90.000000,,,,0.000000,4.000000,4.000000,4.000000,4.000000,4.000000,4.000000,4.000000,4.000000,4.000000,4.000000,4.000000,4.000000,4.000000,4.000000,100.000000,,,,,,,,,,,,,,,,,,,,,,,,,,,,,,,,,,,,,,,,,,,,,,,,,,,,,,,,,,,,,,,,,,,,,,,,,,,,,,,,,,,,,,
1676058951.985385,1676058951.987097,2.000000,0.000000,4291.538574,4293.589844,4312.820313,4301.666504,4297.563965,4183.077148,4311.666504,4313.717773,4295.128418,4278.589844,4491.794922,4492.692383,4365.256348,4602.820313,2319.000000,4.000000,90.000000,,,,0.000000,4.000000,4.000000,4.000000,4.000000,4.000000,4.000000,4.000000,4.000000,4.000000,4.000000,4.000000,4.000000,4.000000,4.000000,100.000000,,,,,,,,,,,,,,,,,,,,,,,,,,,,,,,,,,,,,,,,,,,,,,,,,,,,,,,,,,,,,,,,,,,,,,,,,,,,,,,,,,,,,,
1676058951.993194,1676058951.994905,3.000000,0.000000,4289.871582,4285.128418,4312.307617,4296.025879,4293.589844,4186.025879,4304.102539,4300.384766,4281.794922,4272.563965,4488.333496,4489.743652,4364.871582,4586.410156,2281.000000,4.000000,90.000000,1,1,1,0.000000,4.000000,4.000000,4.000000,4.000000,4.000000,4.000000,4.000000,4.000000,4.000000,4.000000,4.000000,4.000000,4.000000,4.000000,100.000000,,,,,,,,,,,,,,,,,,,,,,,,,,,,,,,,,,,,,,,,,,,,,,,,,,,,,,,,,,,,,,,,,,,,,,,,,,,,,,,,,,,,,,
1676058952.001002,1676058952.002714,4.000000,0.000000,4294.102539,4281.794922,4309.102539,4297.179688,4294.871582,4184.615234,4293.205078,4285.769043,4273.461426,4264.487305,4488.717773,4487.692383,4367.948730,4577.307617,2334.000000,4.000000,90.000000,,,,0.000000,4.000000,4.000000,4.000000,4.000000,4.000000,4.000000,4.000000,4.000000,4.000000,4.000000,4.000000,4.000000,4.000000,4.000000,100.000000,,,,,,,,,,,,,,,,,,,,,,,,,,,,,,,,,,,,,,,,,,,,,,,,,,,,,,,,,,,,,,,,,,,,,,,,,,,,,,,,,,,,,,
1676058952.008810,1676058952.010422,5.000000,0.000000,4291.025879,4284.615234,4305.897461,4295.641113,4298.717773,4185.641113,4292.179688,4285.000000,4275.256348,4261.282227,4484.871582,4486.538574,4358.205078,4559.487305,2426.000000,4.000000,90.000000,,,,0.000000,4.000000,4.000000,4.000000,4.000000,4.000000,4.000000,4.000000,4.000000,4.000000,4.000000,4.000000,4.000000,4.000000,4.000000,100.000000,,,,,,,,,,,,,,,,,,,,,,,,,,,,,,,,,,,,,,,,,,,,,,,,,,,,,,,,,,,,,,,,,,,,,,,,,,,,,,,,,,,,,,
1676058952.016619,1676058952.018231,6.000000,0.000000,4290.384766,4283.846191,4305.769043,4291.794922,4296.153809,4187.179688,4294.615234,4292.307617,4281.153809,4268.974121,4483.846191,4487.307617,4356.282227,4548.333496,2343.000000,4.000000,90.000000,,,,0.000000,4.000000,4.000000,4.000000,4.000000,4.000000,4.000000,4.000000,4.000000,4.000000,4.000000,4.000000,4.000000,4.000000,4.000000,100.000000,,,,,,,,,,,,,,,,,,,,,,,,,,,,,,,,,,,,,,,,,,,,,,,,,,,,,,,,,,,,,,,,,,,,,,,,,,,,,,,,,,,,,,
1676058952.024427,1676058952.025939,7.000000,0.000000,4295.128418,4283.846191,4311.282227,4292.820313,4292.051270,4185.641113,4291.282227,4302.692383,4290.256348,4280.512695,4496.025879,4498.461426,4373.461426,4548.974121,2429.000000,4.000000,90.000000,,,,0.000000,4.000000,4.000000,4.000000,4.000000,4.000000,4.000000,4.000000,4.000000,4.000000,4.000000,4.000000,4.000000,4.000000,4.000000,100.000000,,,,,,,,,,,,,,,,,,,,,,,,,,,,,,,,,,,,,,,,,,,,,,,,,,,,,,,,,,,,,,,,,,,,,,,,,,,,,,,,,,,,,,
1676058952.032236,1676058952.033748,8.000000,0.000000,4297.179688,4290.641113,4312.179688,4294.871582,4294.358887,4183.846191,4289.487305,4310.641113,4295.769043,4283.461426,4503.846191,4504.615234,4376.538574,4544.487305,2381.000000,4.000000,90.000000,,,,0.000000,4.000000,4.000000,4.000000,4.000000,4.000000,4.000000,4.000000,4.000000,4.000000,4.000000,4.000000,4.000000,4.000000,4.000000,100.000000,,,,,,,,,,,,,,,,,,,,,,,,,,,,,,,,,,,,,,,,,,,,,,,,,,,,,,,,,,,,,,,,,,,,,,,,,,,,,,,,,,,,,,
1676058952.040044,1676058952.041456,9.000000,0.000000,4299.487305,4296.794922,4309.102539,4298.846191,4295.769043,4182.820313,4290.897461,4312.820313,4297.436035,4279.230957,4503.333496,4499.487305,4370.000000,4532.692383,2421.000000,4.000000,90.000000,,,,0.000000,4.000000,4.000000,4.000000,4.000000,4.000000,4.000000,4.000000,4.000000,4.000000,4.000000,4.000000,4.000000,4.000000,4.000000,100.000000,,,,,,,,,,,,,,,,,,,,,,,,,,,,,,,,,,,,,,,,,,,,,,,,,,,,,,,,,,,,,,,,,,,,,,,,,,,,,,,,,,,,,,
1676058952.047852,1676058952.049265,10.000000,0.000000,4303.205078,4298.461426,4315.641113,4303.461426,4293.589844,4183.333496,4295.000000,4313.077148,4300.512695,4282.948730,4510.128418,4499.102539,4378.205078,4525.512695,2717.000000,4.000000,90.000000,,,,0.000000,4.000000,4.000000,4.000000,4.000000,4.000000,4.000000,4.000000,4.000000,4.000000,4.000000,4.000000,4.000000,4.000000,4.000000,100.000000,,,,,,,,,,,,,,,,,,,,,,,,,,,,,,,,,,,,,,,,,,,,,,,,,,,,,,,,,,,,,,,,,,,,,,,,,,,,,,,,,,,,,,
1676058952.055661,1676058952.056973,11.000000,0.000000,4304.615234,4297.692383,4319.615234,4303.717773,4295.641113,4184.487305,4303.205078,4312.563965,4302.436035,4294.102539,4521.794922,4507.563965,4385.512695,4523.461426,2899.000000,4.000000,90.000000,,,,0.000000,4.000000,4.000000,4.000000,4.000000,4.000000,4.000000,4.000000,4.000000,4.000000,4.000000,4.000000,4.000000,4.000000,4.000000,100.000000,,,,,,,,,,,,,,,,,,,,,,,,,,,,,,,,,,,,,,,,,,,,,,,,,,,,,,,,,,,,,,,,,,,,,,,,,,,,,,,,,,,,,,
1676058952.063469,1676058952.064782,12.000000,0.000000,4303.589844,4297.563965,4315.384766,4303.717773,4300.000000,4186.666504,4306.538574,4311.666504,4304.358887,4297.563965,4530.769043,4507.179688,4380.384766,4518.333496,3122.000000,4.000000,90.000000,,,,0.000000,4.000000,4.000000,4.000000,4.000000,4.000000,4.000000,4.000000,4.000000,4.000000,4.000000,4.000000,4.000000,4.000000,4.000000,100.000000,,,,,,,,,,,,,,,,,,,,,,,,,,,,,,,,,,,,,,,,,,,,,,,,,,,,,,,,,,,,,,,,,,,,,,,,,,,,,,,,,,,,,,
1676058952.071278,1676058952.072490,13.000000,0.000000,4300.769043,4299.743652,4313.974121,4307.307617,4302.307617,4189.487305,4304.230957,4317.051270,4310.769043,4297.179688,4539.487305,4496.922852,4377.820313,4505.769043,3211.000000,4.000000,90.000000,,,,0.000000,4.000000,4.000000,4.000000,4.000000,4.000000,4.000000,4.000000,4.000000,4.000000,4.000000,4.000000,4.000000,4.000000,4.000000,100.000000,,,,,,,,,,,,,,,,,,,,,,,,,,,,,,,,,,,,,,,,,,,,,,,,,,,,,,,,,,,,,,,,,,,,,,,,,,,,,,,,,,,,,,
1676058952.079086,1676058952.080299,14.000000,0.000000,4295.000000,4298.846191,4315.769043,4305.512695,4301.282227,4188.077148,4298.077148,4322.307617,4314.358887,4296.153809,4545.000000,4492.179688,4377.820313,4491.538574,2717.000000,4.000000,90.000000,,,,0.000000,4.000000,4.000000,4.000000,4.000000,4.000000,4.000000,4.000000,4.000000,4.000000,4.000000,4.000000,4.000000,4.000000,4.000000,100.000000,1.000000,41.666668,4.000000,4.000000,4.000000,4.000000,4.000000,0.000000,4.000000,4.000000,4.000000,4.000000,4.000000,4.000000,4.000000,1.000000,3.314587,2.467912,0.821685,0.384507,0.091734,3.594449,1.499339,0.740305,0.217585,0.239237,3.379751,2.161933,1.056037,0.306457,0.198993,2.016698,1.149909,0.942585,0.254380,0.090563,0.518496,0.586623,0.340259,0.132978,0.067440,186.401291,14.752815,12.391918,0.870072,0.436115,1.232924,4.843662,1.738894,1.155355,0.129120,1.578213,3.878466,0.965861,0.711240,0.189074,1.124329,2.082505,0.404002,0.346027,0.152151,1.162097,1.599040,0.450546,0.205541,0.168980,4.443318,2.357392,1.336907,0.412019,0.233107,3.940495,2.862029,1.053698,0.378342,0.170938,2.885889,2.832587,0.835984,0.392189,0.329205,5.542967,3.092842,1.023739,0.441805,0.285342
1676058952.086894,1676058952.088007,15.000000,0.000000,4291.922852,4296.410156,4312.179688,4296.025879,4297.820313,4186.922852,4287.307617,4313.717773,4307.820313,4289.358887,4544.230957,4493.205078,4372.436035,4482.820313,2899.000000,4.000000,90.000000,,,,0.000000,4.000000,4.000000,4.000000,4.000000,4.000000,4.000000,4.000000,4.000000,4.000000,4.000000,4.000000,4.000000,4.000000,4.000000,100.000000,,,,,,,,,,,,,,,,,,,,,,,,,,,,,,,,,,,,,,,,,,,,,,,,,,,,,,,,,,,,,,,,,,,,,,,,,,,,,,,,,,,,,,
1676058952.094703,1676058952.095816,16.000000,0.000000,4290.384766,4293.205078,4300.384766,4291.153809,4296.153809,4193.974121,4277.051270,4298.589844,4290.769043,4276.410156,4537.436035,4486.025879,4362.820313,4470.897461,0.000000,4.000000,90.000000,,,,0.000000,4.000000,4.000000,4.000000,4.000000,4.000000,4.000000,4.000000,4.000000,4.000000,4.000000,4.000000,4.000000,4.000000,4.000000,100.000000,,,,,,,,,,,,,,,,,,,,,,,,,,,,,,,,,,,,,,,,,,,,,,,,,,,,,,,,,,,,,,,,,,,,,,,,,,,,,,,,,,,,,,
1676058952.102511,1676058952.103524,17.000000,0.000000,4287.820313,4295.256348,4293.461426,4292.179688,4298.077148,4202.436035,4278.846191,4287.179688,4276.153809,4267.436035,4527.692383,4473.333496,4352.948730,4458.717773,0.000000,4.000000,90.000000,,,,0.000000,4.000000,4.000000,4.000000,4.000000,4.000000,4.000000,4.000000,4.000000,4.000000,4.000000,4.000000,4.000000,4.000000,4.000000,100.000000,,,,,,,,,,,,,,,,,,,,,,,,,,,,,,,,,,,,,,,,,,,,,,,,,,,,,,,,,,,,,,,,,,,,,,,,,,,,,,,,,,,,,,
1676058952.110320,1676058952.111333,18.000000,0.000000,4286.666504,4296.282227,4297.563965,4291.922852,4299.358887,4207.051270,4292.436035,4279.743652,4273.205078,4262.948730,4521.794922,4473.077148,4352.307617,4453.205078,0.000000,4.000000,90.000000,,,,0.000000,4.000000,4.000000,4.000000,4.000000,4.000000,4.000000,4.000000,4.000000,4.000000,4.000000,4.000000,4.000000,4.000000,4.000000,100.000000,,,,,,,,,,,,,,,,,,,,,,,,,,,,,,,,,,,,,,,,,,,,,,,,,,,,,,,,,,,,,,,,,,,,,,,,,,,,,,,,,,,,,,
1676058952.118128,1676058952.119041,19.000000,0.000000,4286.282227,4284.487305,4303.717773,4291.153809,4297.948730,4214.743652,4306.538574,4278.333496,4275.256348,4262.436035,4520.384766,4476.282227,4354.615234,4446.282227,0.000000,4.000000,90.000000,,,,0.000000,4.000000,4.000000,4.000000,4.000000,4.000000,4.000000,4.000000,4.000000,4.000000,4.000000,4.000000,4.000000,4.000000,4.000000,100.000000,,,,,,,,,,,,,,,,,,,,,,,,,,,,,,,,,,,,,,,,,,,,,,,,,,,,,,,,,,,,,,,,,,,,,,,,,,,,,,,,,,,,,,
1676058952.125936,1676058952.126850,20.000000,0.000000,4290.641113,4277.948730,4307.179688,4292.692383,4297.820313,4221.153809,4311.666504,4286.153809,4273.589844,4264.102539,4520.128418,4476.666504,4351.666504,4443.333496,0.000000,4.000000,90.000000,,,,0.000000,4.000000,4.000000,4.000000,4.000000,4.000000,4.000000,4.000000,4.000000,4.000000,4.000000,4.000000,4.000000,4.000000,4.000000,100.000000,,,,,,,,,,,,,,,,,,,,,,,,,,,,,,,,,,,,,,,,,,,,,,,,,,,,,,,,,,,,,,,,,,,,,,,,,,,,,,,,,,,,,,
1676058952.133745,1676058952.134558,21.000000,0.000000,4294.743652,4288.077148,4309.871582,4291.538574,4297.692383,4212.692383,4305.256348,4299.230957,4276.922852,4264.102539,4518.974121,4484.230957,4348.333496,4446.666504,0.000000,4.000000,90.000000,,,,0.000000,4.000000,4.000000,4.000000,4.000000,4.000000,4.000000,4.000000,4.000000,4.000000,4.000000,4.000000,4.000000,4.000000,4.000000,100.000000,,,,,,,,,,,,,,,,,,,,,,,,,,,,,,,,,,,,,,,,,,,,,,,,,,,,,,,,,,,,,,,,,,,,,,,,,,,,,,,,,,,,,,
1676058952.141553,1676058952.142367,22.000000,0.000000,4294.871582,4295.769043,4313.846191,4291.794922,4296.410156,4201.538574,4296.922852,4308.461426,4289.615234,4271.025879,4521.025879,4491.922852,4353.077148,4444.743652,0.000000,4.000000,90.000000,,,,0.000000,4.000000,4.000000,4.000000,4.000000,4.000000,4.000000,4.000000,4.000000,4.000000,4.000000,4.000000,4.000000,4.000000,4.000000,100.000000,,,,,,,,,,,,,,,,,,,,,,,,,,,,,,,,,,,,,,,,,,,,,,,,,,,,,,,,,,,,,,,,,,,,,,,,,,,,,,,,,,,,,,
1676058952.149361,1676058952.150075,23.000000,0.000000,4298.205078,4296.153809,4316.666504,4299.615234,4295.641113,4202.436035,4293.717773,4311.025879,4298.974121,4283.333496,4533.333496,4494.358887,4366.794922,4443.846191,0.000000,4.000000,90.000000,,,,0.000000,4.000000,4.000000,4.000000,4.000000,4.000000,4.000000,4.000000,4.000000,4.000000,4.000000,4.000000,4.000000,4.000000,4.000000,100.000000,,,,,,,,,,,,,,,,,,,,,,,,,,,,,,,,,,,,,,,,,,,,,,,,,,,,,,,,,,,,,,,,,,,,,,,,,,,,,,,,,,,,,,
1676058952.157170,1676058952.157984,24.000000,0.000000,4298.589844,4296.666504,4315.384766,4303.717773,4296.538574,4204.230957,4292.563965,4310.128418,4296.794922,4284.230957,4535.897461,4494.871582,4365.384766,4443.461426,0.000000,4.000000,90.000000,,,,0.000000,4.000000,4.000000,4.000000,4.000000,4.000000,4.000000,4.000000,4.000000,4.000000,4.000000,4.000000,4.000000,4.000000,4.000000,100.000000,,,,,,,,,,,,,,,,,,,,,,,,,,,,,,,,,,,,,,,,,,,,,,,,,,,,,,,,,,,,,,,,,,,,,,,,,,,,,,,,,,,,,,
1676058952.164978,1676058952.165792,25.000000,0.000000,4295.128418,4295.512695,4311.922852,4299.230957,4298.717773,4201.025879,4291.282227,4304.487305,4293.333496,4278.589844,4525.512695,4492.820313,4352.948730,4439.102539,0.000000,4.000000,90.000000,,,,0.000000,4.000000,4.000000,4.000000,4.000000,4.000000,4.000000,4.000000,4.000000,4.000000,4.000000,4.000000,4.000000,4.000000,4.000000,100.000000,,,,,,,,,,,,,,,,,,,,,,,,,,,,,,,,,,,,,,,,,,,,,,,,,,,,,,,,,,,,,,,,,,,,,,,,,,,,,,,,,,,,,,
1676058952.172787,1676058952.173700,26.000000,0.000000,4298.717773,4295.128418,4316.025879,4296.666504,4297.948730,4201.282227,4291.922852,4296.025879,4293.974121,4277.051270,4525.641113,4490.897461,4357.820313,4438.974121,0.000000,4.000000,90.000000,,,,0.000000,4.000000,4.000000,4.000000,4.000000,4.000000,4.000000,4.000000,4.000000,4.000000,4.000000,4.000000,4.000000,4.000000,4.000000,100.000000,,,,,,,,,,,,,,,,,,,,,,,,,,,,,,,,,,,,,,,,,,,,,,,,,,,,,,,,,,,,,,,,,,,,,,,,,,,,,,,,,,,,,,
1676058952.180595,1676058952.181509,27.000000,0.000000,4305.256348,4300.000000,4319.102539,4298.333496,4294.102539,4203.205078,4292.563965,4292.051270,4295.256348,4277.820313,4531.410156,4492.692383,4371.025879,4439.871582,0.000000,4.000000,90.000000,,,,0.000000,4.000000,4.000000,4.000000,4.000000,4.000000,4.000000,4.000000,4.000000,4.000000,4.000000,4.000000,4.000000,4.000000,4.000000,100.000000,,,,,,,,,,,,,,,,,,,,,,,,,,,,,,,,,,,,,,,,,,,,,,,,,,,,,,,,,,,,,,,,,,,,,,,,,,,,,,,,,,,,,,
1676058952.188403,1676058952.189417,28.000000,0.000000,4298.333496,4298.333496,4310.897461,4296.922852,4292.436035,4203.077148,4290.897461,4292.051270,4292.051270,4278.974121,4526.666504,4487.692383,4371.794922,4433.333496,0.000000,4.000000,90.000000,,,,0.000000,4.000000,4.000000,4.000000,4.000000,4.000000,4.000000,4.000000,4.000000,4.000000,4.000000,4.000000,4.000000,4.000000,4.000000,100.000000,,,,,,,,,,,,,,,,,,,,,,,,,,,,,,,,,,,,,,,,,,,,,,,,,,,,,,,,,,,,,,,,,,,,,,,,,,,,,,,,,,,,,,
1676058952.196212,1676058952.197226,29.000000,0.000000,4286.410156,4293.333496,4306.538574,4296.410156,4294.230957,4210.256348,4293.461426,4295.384766,4284.743652,4276.153809,4520.641113,4475.769043,4357.051270,4418.589844,0.000000,4.000000,90.000000,,,,0.000000,4.000000,4.000000,4.000000,4.000000,4.000000,4.000000,4.000000,4.000000,4.000000,4.000000,4.000000,4.000000,4.000000,4.000000,100.000000,,,,,,,,,,,,,,,,,,,,,,,,,,,,,,,,,,,,,,,,,,,,,,,,,,,,,,,,,,,,,,,,,,,,,,,,,,,,,,,,,,,,,,
1676058952.204020,1676058952.204934,30.000000,0.000000,4288.846191,4299.487305,4309.871582,4298.974121,4295.641113,4218.077148,4296.922852,4298.333496,4279.871582,4267.051270,4522.307617,4473.589844,4350.128418,4409.230957,0.000000,4.000000,90.000000,,,,0.000000,4.000000,4.000000,4.000000,4.000000,4.000000,4.000000,4.000000,4.000000,4.000000,4.000000,4.000000,4.000000,4.000000,4.000000,100.000000,,,,,,,,,,,,,,,,,3.716354,2.544733,0.698978,0.371288,0.095796,3.845654,1.609371,0.718204,0.200131,0.236005,3.783670,2.291818,0.942008,0.306120,0.188107,2.361665,1.044465,0.860885,0.250126,0.082219,0.519779,0.521121,0.347913,0.137588,0.058646,160.122787,13.986515,10.489135,0.764354,0.381111,1.217342,5.410764,1.931820,1.107345,0.129226,1.594829,4.240515,0.805112,0.622180,0.169471,1.192846,2.306412,0.392926,0.350870,0.157254,1.169506,1.544115,0.463372,0.251266,0.147810,4.226342,1.988257,1.220121,0.441896,0.206026,4.111115,2.672905,0.971308,0.367495,0.147756,2.848189,2.494127,0.857958,0.407829,0.309656,8.236386,4.020918,1.766205,0.667829,0.265503
1676058952.211829,1676058952.212743,31.000000,0.000000,4291.922852,4304.102539,4307.692383,4297.307617,4293.717773,4217.563965,4296.538574,4293.077148,4279.358887,4264.615234,4522.436035,4477.051270,4359.487305,4411.410156,0.000000,4.000000,90.000000,,,,0.000000,4.000000,4.000000,4.000000,4.000000,4.000000,4.000000,4.000000,4.000000,4.000000,4.000000,4.000000,4.000000,4.000000,4.000000,100.000000,,,,,,,,,,,,,,,,,,,,,,,,,,,,,,,,,,,,,,,,,,,,,,,,,,,,,,,,,,,,,,,,,,,,,,,,,,,,,,,,,,,,,,
1676058952.219637,1676058952.220451,32.000000,0.000000,4287.692383,4296.153809,4304.230957,4294.230957,4294.102539,4218.974121,4298.333496,4287.820313,4276.794922,4271.025879,4521.538574,4475.512695,4363.461426,4414.615234,0.000000,4.000000,90.000000,,,,0.000000,4.000000,4.000000,4.000000,4.000000,4.000000,4.000000,4.000000,4.000000,4.000000,4.000000,4.000000,4.000000,4.000000,4.000000,100.000000,,,,,,,,,,,,,,,,,,,,,,,,,,,,,,,,,,,,,,,,,,,,,,,,,,,,,,,,,,,,,,,,,,,,,,,,,,,,,,,,,,,,,,
1676058952.227445,1676058952.228260,33.000000,0.000000,4288.333496,4293.589844,4308.077148,4296.922852,4301.153809,4223.589844,4303.717773,4290.641113,4276.153809,4276.025879,4525.256348,4479.615234,4359.358887,4412.692383,0.000000,4.000000,90.000000,,,,0.000000,4.000000,4.000000,4.000000,4.000000,4.000000,4.000000,4.000000,4.000000,4.000000,4.000000,4.000000,4.000000,4.000000,4.000000,100.000000,,,,,,,,,,,,,,,,,,,,,,,,,,,,,,,,,,,,,,,,,,,,,,,,,,,,,,,,,,,,,,,,,,,,,,,,,,,,,,,,,,,,,,
1676058952.235254,1676058952.235968,34.000000,0.000000,4293.205078,4307.563965,4313.974121,4304.230957,4305.000000,4221.922852,4305.384766,4298.333496,4280.000000,4275.000000,4533.589844,4487.436035,4366.153809,4414.871582,0.000000,4.000000,90.000000,,,,0.000000,4.000000,4.000000,4.000000,4.000000,4.000000,4.000000,4.000000,4.000000,4.000000,4.000000,4.000000,4.000000,4.000000,4.000000,100.000000,,,,,,,,,,,,,,,,,,,,,,,,,,,,,,,,,,,,,,,,,,,,,,,,,,,,,,,,,,,,,,,,,,,,,,,,,,,,,,,,,,,,,,
1676058952.243062,1676058952.243777,35.000000,0.000000,4302.051270,4315.256348,4320.000000,4311.410156,4299.743652,4217.307617,4301.153809,4303.717773,4284.102539,4278.077148,4545.769043,4491.666504,4381.025879,4426.922852,0.000000,4.000000,90.000000,,,,0.000000,4.000000,4.000000,4.000000,4.000000,4.000000,4.000000,4.000000,4.000000,4.000000,4.000000,4.000000,4.000000,4.000000,4.000000,100.000000,,,,,,,,,,,,,,,,,,,,,,,,,,,,,,,,,,,,,,,,,,,,,,,,,,,,,,,,,,,,,,,,,,,,,,,,,,,,,,,,,,,,,,
1676058952.250871,1676058952.251485,36.000000,0.000000,4309.615234,4302.436035,4325.512695,4311.410156,4296.410156,4221.410156,4296.794922,4307.563965,4291.666504,4289.358887,4551.922852,4499.102539,4382.179688,4430.128418,0.000000,4.000000,90.000000,,,,0.000000,4.000000,4.000000,4.000000,4.000000,4.000000,4.000000,4.000000,4.000000,4.000000,4.000000,4.000000,4.000000,4.000000,4.000000,100.000000,,,,,,,,,,,,,,,,,,,,,,,,,,,,,,,,,,,,,,,,,,,,,,,,,,,,,,,,,,,,,,,,,,,,,,,,,,,,,,,,,,,,,,
1676058952.258679,1676058952.259294,37.000000,0.000000,4303.974121,4296.153809,4322.051270,4305.256348,4298.461426,4218.589844,4293.846191,4315.897461,4299.487305,4292.948730,4554.487305,4502.948730,4376.153809,4422.436035,0.000000,4.000000,90.000000,,,,0.000000,4.000000,4.000000,4.000000,4.000000,4.000000,4.000000,4.000000,4.000000,4.000000,4.000000,4.000000,4.000000,4.000000,4.000000,100.000000,,,,,,,,,,,,,,,,,,,,,,,,,,,,,,,,,,,,,,,,,,,,,,,,,,,,,,,,,,,,,,,,,,,,,,,,,,,,,,,,,,,,,,
1676058952.266487,1676058952.267002,38.000000,0.000000,4290.769043,4301.666504,4312.948730,4302.563965,4296.538574,4204.743652,4290.897461,4320.512695,4298.974121,4282.948730,4552.307617,4495.512695,4370.512695,4413.846191,0.000000,4.000000,90.000000,,,,0.000000,4.000000,4.000000,4.000000,4.000000,4.000000,4.000000,4.000000,4.000000,4.000000,4.000000,4.000000,4.000000,4.000000,4.000000,100.000000,,,,,,,,,,,,,,,,,,,,,,,,,,,,,,,,,,,,,,,,,,,,,,,,,,,,,,,,,,,,,,,,,,,,,,,,,,,,,,,,,,,,,,
1676058952.274296,1676058952.274811,39.000000,0.000000,4294.871582,4303.717773,4311.153809,4303.974121,4294.230957,4205.384766,4287.051270,4310.128418,4298.717773,4277.307617,4544.102539,4490.256348,4370.641113,4412.820313,0.000000,4.000000,90.000000,,,,0.000000,4.000000,4.000000,4.000000,4.000000,4.000000,4.000000,4.000000,4.000000,4.000000,4.000000,4.000000,4.000000,4.000000,4.000000,100.000000,,,,,,,,,,,,,,,,,,,,,,,,,,,,,,,,,,,,,,,,,,,,,,,,,,,,,,,,,,,,,,,,,,,,,,,,,,,,,,,,,,,,,,
1676058952.282104,1676058952.282519,40.000000,0.000000,4299.615234,4293.461426,4309.358887,4300.897461,4298.333496,4218.461426,4286.794922,4294.871582,4295.512695,4281.794922,4540.384766,4486.922852,4373.974121,4413.846191,0.000000,4.000000,90.000000,,,,0.000000,4.000000,4.000000,4.000000,4.000000,4.000000,4.000000,4.000000,4.000000,4.000000,4.000000,4.000000,4.000000,4.000000,4.000000,100.000000,,,,,,,,,,,,,,,,,,,,,,,,,,,,,,,,,,,,,,,,,,,,,,,,,,,,,,,,,,,,,,,,,,,,,,,,,,,,,,,,,,,,,,
1676058952.289913,1676058952.290427,41.000000,0.000000,4285.512695,4276.538574,4302.051270,4292.948730,4298.589844,4220.256348,4293.205078,4289.615234,4283.846191,4278.205078,4538.589844,4477.051270,4362.436035,4401.794922,0.000000,4.000000,90.000000,,,,0.000000,4.000000,4.000000,4.000000,4.000000,4.000000,4.000000,4.000000,4.000000,4.000000,4.000000,4.000000,4.000000,4.000000,4.000000,100.000000,,,,,,,,,,,,,,,,,,,,,,,,,,,,,,,,,,,,,,,,,,,,,,,,,,,,,,,,,,,,,,,,,,,,,,,,,,,,,,,,,,,,,,
1676058952.297721,1676058952.298236,42.000000,0.000000,4285.384766,4275.512695,4304.358887,4292.692383,4296.666504,4215.769043,4300.897461,4287.563965,4276.282227,4266.153809,4534.743652,4470.512695,4351.794922,4389.871582,0.000000,4.000000,90.000000,,,,0.000000,4.000000,4.000000,4.000000,4.000000,4.000000,4.000000,4.000000,4.000000,4.000000,4.000000,4.000000,4.000000,4.000000,4.000000,100.000000,,,,,,,,,,,,,,,,,,,,,,,,,,,,,,,,,,,,,,,,,,,,,,,,,,,,,,,,,,,,,,,,,,,,,,,,,,,,,,,,,,,,,,
1676058952.305529,1676058952.306144,43.000000,0.000000,4301.538574,4288.846191,4314.102539,4304.230957,4302.948730,4218.461426,4302.307617,4283.717773,4279.230957,4263.461426,4537.563965,4474.743652,4364.358887,4398.333496,0.000000,4.000000,90.000000,,,,0.000000,4.000000,4.000000,4.000000,4.000000,4.000000,4.000000,4.000000,4.000000,4.000000,4.000000,4.000000,4.000000,4.000000,4.000000,100.000000,,,,,,,,,,,,,,,,,,,,,,,,,,,,,,,,,,,,,,,,,,,,,,,,,,,,,,,,,,,,,,,,,,,,,,,,,,,,,,,,,,,,,,
1676058952.313338,1676058952.313953,44.000000,0.000000,4302.692383,4290.897461,4314.102539,4311.666504,4304.615234,4221.410156,4300.769043,4288.077148,4280.897461,4274.102539,4549.743652,4483.974121,4378.333496,4412.307617,0.000000,4.000000,90.000000,,,,0.000000,4.000000,4.000000,4.000000,4.000000,4.000000,4.000000,4.000000,4.000000,4.000000,4.000000,4.000000,4.000000,4.000000,4.000000,100.000000,,,,,,,,,,,,,,,,,,,,,,,,,,,,,,,,,,,,,,,,,,,,,,,,,,,,,,,,,,,,,,,,,,,,,,,,,,,,,,,,,,,,,,
1676058952.321146,1676058952.321861,45.000000,0.000000,4291.538574,4274.358887,4310.000000,4306.538574,4300.897461,4220.128418,4297.179688,4300.641113,4280.512695,4280.769043,4556.410156,4490.384766,4370.769043,4409.358887,0.000000,4.000000,90.000000,,,,0.000000,4.000000,4.000000,4.000000,4.000000,4.000000,4.000000,4.000000,4.000000,4.000000,4.000000,4.000000,4.000000,4.000000,4.000000,100.000000,,,,,,,,,,,,,,,,,,,,,,,,,,,,,,,,,,,,,,,,,,,,,,,,,,,,,,,,,,,,,,,,,,,,,,,,,,,,,,,,,,,,,,
1676058952.328955,1676058952.329670,46.000000,0.000000,4291.153809,4265.000000,4310.769043,4302.307617,4301.025879,4216.538574,4287.692383,4305.512695,4281.025879,4270.641113,4554.102539,4489.487305,4360.256348,4400.512695,0.000000,4.000000,90.000000,,,,0.000000,4.000000,4.000000,4.000000,4.000000,4.000000,4.000000,4.000000,4.000000,4.000000,4.000000,4.000000,4.000000,4.000000,4.000000,100.000000,,,,,,,,,,,,,,,,,4.018211,2.934199,0.569784,0.371566,0.105763,3.942543,1.884752,0.697068,0.203862,0.221545,4.081562,2.886206,0.813750,0.324751,0.167904,2.632427,1.193222,0.761754,0.249934,0.074331,0.503197,0.505244,0.353002,0.145948,0.054327,116.839012,11.988696,7.651446,0.631790,0.303244,1.296887,5.873415,1.985373,0.996533,0.130477,1.474495,4.655606,0.701369,0.552445,0.145924,1.216639,2.610044,0.382466,0.361361,0.162783,1.149593,1.608153,0.465699,0.299563,0.126891,3.989161,1.992785,1.079754,0.507542,0.173815,4.015951,2.959778,0.864783,0.406572,0.127700,2.651142,2.386791,0.819852,0.444099,0.289338,17.639809,7.934127,3.980446,1.313093,0.257438
1676058952.336763,1676058952.337578,47.000000,0.000000,4296.794922,4268.846191,4313.974121,4304.358887,4301.922852,4215.512695,4282.179688,4297.563965,4280.512695,4262.820313,4554.487305,4490.128418,4366.410156,4405.000000,0.000000,4.000000,90.000000,,,,0.000000,4.000000,4.000000,4.000000,4.000000,4.000000,4.000000,4.000000,4.000000,4.000000,4.000000,4.000000,4.000000,4.000000,4.000000,100.000000,,,,,,,,,,,,,,,,,,,,,,,,,,,,,,,,,,,,,,,,,,,,,,,,,,,,,,,,,,,,,,,,,,,,,,,,,,,,,,,,,,,,,,
1676058952.344571,1676058952.345386,48.000000,0.000000,4295.256348,4271.922852,4314.230957,4303.846191,4298.974121,4218.333496,4285.512695,4299.615234,4284.230957,4271.025879,4558.333496,4493.717773,4374.230957,4412.820313,0.000000,4.000000,90.000000,,,,0.000000,4.000000,4.000000,4.000000,4.000000,4.000000,4.000000,4.000000,4.000000,4.000000,4.000000,4.000000,4.000000,4.000000,4.000000,100.000000,,,,,,,,,,,,,,,,,,,,,,,,,,,,,,,,,,,,,,,,,,,,,,,,,,,,,,,,,,,,,,,,,,,,,,,,,,,,,,,,,,,,,,
1676058952.352380,1676058952.353295,49.000000,0.000000,4295.000000,4274.102539,4313.717773,4301.153809,4298.717773,4220.384766,4290.000000,4318.333496,4291.538574,4281.153809,4568.333496,4495.128418,4374.743652,4413.717773,0.000000,4.000000,90.000000,,,,0.000000,4.000000,4.000000,4.000000,4.000000,4.000000,4.000000,4.000000,4.000000,4.000000,4.000000,4.000000,4.000000,4.000000,4.000000,100.000000,,,,,,,,,,,,,,,,,,,,,,,,,,,,,,,,,,,,,,,,,,,,,,,,,,,,,,,,,,,,,,,,,,,,,,,,,,,,,,,,,,,,,,
1676058952.360188,1676058952.361103,50.000000,0.000000,4292.820313,4273.717773,4313.589844,4299.102539,4299.615234,4223.589844,4290.769043,4322.436035,4291.794922,4278.846191,4573.333496,4495.641113,4369.102539,4407.563965,0.000000,4.000000,90.000000,,,,0.000000,4.000000,4.000000,4.000000,4.000000,4.000000,4.000000,4.000000,4.000000,4.000000,4.000000,4.000000,4.000000,4.000000,4.000000,100.000000,,,,,,,,,,,,,,,,,,,,,,,,,,,,,,,,,,,,,,,,,,,,,,,,,,,,,,,,,,,,,,,,,,,,,,,,,,,,,,,,,,,,,,
1676058952.367996,1676058952.369011,51.000000,0.000000,4284.102539,4270.256348,4306.538574,4293.846191,4293.461426,4223.461426,4287.563965,4304.358887,4283.333496,4265.512695,4556.153809,4486.153809,4358.333496,4392.692383,0.000000,4.000000,90.000000,,,,0.000000,4.000000,4.000000,4.000000,4.000000,4.000000,4.000000,4.000000,4.000000,4.000000,4.000000,4.000000,4.000000,4.000000,4.000000,100.000000,,,,,,,,,,,,,,,,,,,,,,,,,,,,,,,,,,,,,,,,,,,,,,,,,,,,,,,,,,,,,,,,,,,,,,,,,,,,,,,,,,,,,,
1676058952.375805,1676058952.376820,52.000000,0.000000,4275.641113,4264.487305,4293.461426,4290.000000,4290.128418,4217.948730,4281.282227,4291.410156,4276.794922,4257.307617,4535.512695,4471.794922,4350.256348,4380.512695,0.000000,4.000000,90.000000,,,,0.000000,4.000000,4.000000,4.000000,4.000000,4.000000,4.000000,4.000000,4.000000,4.000000,4.000000,4.000000,4.000000,4.000000,4.000000,100.000000,,,,,,,,,,,,,,,,,,,,,,,,,,,,,,,,,,,,,,,,,,,,,,,,,,,,,,,,,,,,,,,,,,,,,,,,,,,,,,,,,,,,,,
1676058952.383613,1676058952.384728,53.000000,0.000000,4272.692383,4261.794922,4290.128418,4290.384766,4295.000000,4217.563965,4277.692383,4293.077148,4277.436035,4260.641113,4539.487305,4471.025879,4348.717773,4380.256348,0.000000,4.000000,90.000000,,,,0.000000,4.000000,4.000000,4.000000,4.000000,4.000000,4.000000,4.000000,4.000000,4.000000,4.000000,4.000000,4.000000,4.000000,4.000000,100.000000,,,,,,,,,,,,,,,,,,,,,,,,,,,,,,,,,,,,,,,,,,,,,,,,,,,,,,,,,,,,,,,,,,,,,,,,,,,,,,,,,,,,,,
1676058952.391422,1676058952.392537,54.000000,0.000000,4275.641113,4268.205078,4297.820313,4292.051270,4298.846191,4218.974121,4281.538574,4292.436035,4280.384766,4265.512695,4550.512695,4474.487305,4350.769043,4380.769043,0.000000,4.000000,90.000000,,,,0.000000,4.000000,4.000000,4.000000,4.000000,4.000000,4.000000,4.000000,4.000000,4.000000,4.000000,4.000000,4.000000,4.000000,4.000000,100.000000,,,,,,,,,,,,,,,,,,,,,,,,,,,,,,,,,,,,,,,,,,,,,,,,,,,,,,,,,,,,,,,,,,,,,,,,,,,,,,,,,,,,,,
1676058952.399230,1676058952.400245,55.000000,0.000000,4289.743652,4281.282227,4308.077148,4298.461426,4298.205078,4214.743652,4285.256348,4284.615234,4281.538574,4268.846191,4552.179688,4478.461426,4358.205078,4385.000000,0.000000,4.000000,90.000000,,,,0.000000,4.000000,4.000000,4.000000,4.000000,4.000000,4.000000,4.000000,4.000000,4.000000,4.000000,4.000000,4.000000,4.000000,4.000000,100.000000,,,,,,,,,,,,,,,,,,,,,,,,,,,,,,,,,,,,,,,,,,,,,,,,,,,,,,,,,,,,,,,,,,,,,,,,,,,,,,,,,,,,,,
1676058952.407038,1676058952.408054,56.000000,0.000000,4305.000000,4287.307617,4317.051270,4308.461426,4301.025879,4216.538574,4284.230957,4280.641113,4281.666504,4279.743652,4560.256348,4491.282227,4373.333496,4405.641113,0.000000,4.000000,90.000000,,,,0.000000,4.000000,4.000000,4.000000,4.000000,4.000000,4.000000,4.000000,4.000000,4.000000,4.000000,4.000000,4.000000,4.000000,4.000000,100.000000,,,,,,,,,,,,,,,,,,,,,,,,,,,,,,,,,,,,,,,,,,,,,,,,,,,,,,,,,,,,,,,,,,,,,,,,,,,,,,,,,,,,,,
1676058952.414847,1676058952.415762,57.000000,0.000000,4302.820313,4281.922852,4321.794922,4312.820313,4308.077148,4215.384766,4280.256348,4281.794922,4282.436035,4284.358887,4565.641113,4493.589844,4374.358887,4410.000000,0.000000,4.000000,90.000000,,,,0.000000,4.000000,4.000000,4.000000,4.000000,4.000000,4.000000,4.000000,4.000000,4.000000,4.000000,4.000000,4.000000,4.000000,4.000000,100.000000,,,,,,,,,,,,,,,,,,,,,,,,,,,,,,,,,,,,,,,,,,,,,,,,,,,,,,,,,,,,,,,,,,,,,,,,,,,,,,,,,,,,,,
1676058952.422655,1676058952.423671,58.000000,0.000000,4298.717773,4288.974121,4320.512695,4312.307617,4307.307617,4202.820313,4279.743652,4278.846191,4279.358887,4270.384766,4556.538574,4478.589844,4363.333496,4396.794922,0.000000,4.000000,90.000000,,,,0.000000,4.000000,4.000000,4.000000,4.000000,4.000000,4.000000,4.000000,4.000000,4.000000,4.000000,4.000000,4.000000,4.000000,4.000000,100.000000,,,,,,,,,,,,,,,,,,,,,,,,,,,,,,,,,,,,,,,,,,,,,,,,,,,,,,,,,,,,,,,,,,,,,,,,,,,,,,,,,,,,,,
1676058952.430464,1676058952.431479,59.000000,0.000000,4305.128418,4300.512695,4319.871582,4313.717773,4302.307617,4204.358887,4282.692383,4272.307617,4274.487305,4263.077148,4554.230957,4474.871582,4374.102539,4404.871582,0.000000,4.000000,90.000000,,,,0.000000,4.000000,4.000000,4.000000,4.000000,4.000000,4.000000,4.000000,4.000000,4.000000,4.000000,4.000000,4.000000,4.000000,4.000000,100.000000,,,,,,,,,,,,,,,,,,,,,,,,,,,,,,,,,,,,,,,,,,,,,,,,,,,,,,,,,,,,,,,,,,,,,,,,,,,,,,,,,,,,,,
1676058952.438272,1676058952.439387,60.000000,0.000000,4301.282227,4287.820313,4315.384766,4308.333496,4300.000000,4219.487305,4287.179688,4276.153809,4275.769043,4271.666504,4558.846191,4481.282227,4382.051270,4412.307617,0.000000,4.000000,90.000000,,,,0.000000,4.000000,4.000000,4.000000,4.000000,4.000000,4.000000,4.000000,4.000000,4.000000,4.000000,4.000000,4.000000,4.000000,4.000000,100.000000,,,,,,,,,,,,,,,,,,,,,,,,,,,,,,,,,,,,,,,,,,,,,,,,,,,,,,,,,,,,,,,,,,,,,,,,,,,,,,,,,,,,,,
1676058952.446080,1676058952.447196,61.000000,0.000000,4284.615234,4271.794922,4301.153809,4296.922852,4297.179688,4220.512695,4288.333496,4288.461426,4282.179688,4276.794922,4554.487305,4476.794922,4363.461426,4396.025879,0.000000,4.000000,90.000000,,,,0.000000,4.000000,4.000000,4.000000,4.000000,4.000000,4.000000,4.000000,4.000000,4.000000,4.000000,4.000000,4.000000,4.000000,4.000000,100.000000,,,,,,,,,,,,,,,,,,,,,,,,,,,,,,,,,,,,,,,,,,,,,,,,,,,,,,,,,,,,,,,,,,,,,,,,,,,,,,,,,,,,,,
1676058952.453889,1676058952.455004,62.000000,0.000000,4280.512695,4273.589844,4294.743652,4293.717773,4297.051270,4216.538574,4283.461426,4296.794922,4290.897461,4272.948730,4554.615234,4474.102539,4358.077148,4389.358887,0.000000,4.000000,90.000000,,,,0.000000,4.000000,4.000000,4.000000,4.000000,4.000000,4.000000,4.000000,4.000000,4.000000,4.000000,4.000000,4.000000,4.000000,4.000000,100.000000,,,,,,,,,,,,,,,,,4.169033,3.505280,0.467524,0.391611,0.120135,3.922161,2.221554,0.670149,0.228320,0.202185,4.222518,3.773838,0.711559,0.359996,0.144124,2.773436,1.506977,0.666277,0.257463,0.069944,0.477373,0.506937,0.344745,0.154691,0.052728,70.643944,9.511479,4.747552,0.510792,0.227851,1.382134,5.999473,1.879825,0.851093,0.133012,1.275713,4.945327,0.668877,0.535884,0.122727,1.232039,3.060662,0.369297,0.377824,0.168298,1.187882,1.878597,0.451034,0.340333,0.110186,3.816413,2.330351,0.950137,0.590485,0.145754,3.754147,3.648476,0.752106,0.482388,0.113628,2.466763,2.546544,0.731282,0.491454,0.278108,35.968082,15.829155,8.128942,2.487249,0.268274
1676058952.461697,1676058952.462713,63.000000,0.000000,4280.769043,4270.641113,4298.461426,4290.000000,4296.794922,4228.077148,4287.051270,4303.846191,4294.230957,4270.897461,4557.307617,4479.615234,4368.333496,4391.282227,0.000000,4.000000,90.000000,,,,0.000000,4.000000,4.000000,4.000000,4.000000,4.000000,4.000000,4.000000,4.000000,4.000000,4.000000,4.000000,4.000000,4.000000,4.000000,100.000000,,,,,,,,,,,,,,,,,,,,,,,,,,,,,,,,,,,,,,,,,,,,,,,,,,,,,,,,,,,,,,,,,,,,,,,,,,,,,,,,,,,,,,
1676058952.469505,1676058952.470521,64.000000,0.000000,4265.641113,4258.589844,4288.846191,4277.948730,4286.410156,4235.641113,4292.948730,4303.077148,4286.794922,4264.102539,4543.077148,4469.102539,4351.794922,4373.333496,2463.000000,4.000000,90.000000,,,,0.000000,4.000000,4.000000,4.000000,4.000000,4.000000,4.000000,4.000000,4.000000,4.000000,4.000000,4.000000,4.000000,4.000000,4.000000,100.000000,,,,,,,,,,,,,,,,,,,,,,,,,,,,,,,,,,,,,,,,,,,,,,,,,,,,,,,,,,,,,,,,,,,,,,,,,,,,,,,,,,,,,,
1676058952.477314,1676058952.478230,65.000000,0.000000,4257.692383,4258.717773,4275.897461,4273.974121,4281.922852,4229.230957,4285.384766,4297.563965,4278.077148,4252.820313,4530.641113,4457.820313,4335.256348,4363.717773,2499.000000,4.000000,90.000000,,,,0.000000,4.000000,4.000000,4.000000,4.000000,4.000000,4.000000,4.000000,4.000000,4.000000,4.000000,4.000000,4.000000,4.000000,4.000000,100.000000,,,,,,,,,,,,,,,,,,,,,,,,,,,,,,,,,,,,,,,,,,,,,,,,,,,,,,,,,,,,,,,,,,,,,,,,,,,,,,,,,,,,,,
1676058952.485122,1676058952.486038,66.000000,0.000000,4268.461426,4263.717773,4284.102539,4282.307617,4293.589844,4228.205078,4282.948730,4303.717773,4280.000000,4254.615234,4536.282227,4469.230957,4346.025879,4374.230957,2319.000000,4.000000,90.000000,,,,0.000000,4.000000,4.000000,4.000000,4.000000,4.000000,4.000000,4.000000,4.000000,4.000000,4.000000,4.000000,4.000000,4.000000,4.000000,100.000000,,,,,,,,,,,,,,,,,,,,,,,,,,,,,,,,,,,,,,,,,,,,,,,,,,,,,,,,,,,,,,,,,,,,,,,,,,,,,,,,,,,,,,
1676058952.492931,1676058952.493747,67.000000,0.000000,4279.871582,4266.410156,4299.615234,4287.436035,4298.461426,4230.641113,4293.461426,4311.538574,4285.897461,4263.461426,4539.102539,4479.743652,4350.000000,4379.615234,2277.000000,4.000000,90.000000,,,,0.000000,4.000000,4.000000,4.000000,4.000000,4.000000,4.000000,4.000000,4.000000,4.000000,4.000000,4.000000,4.000000,4.000000,4.000000,100.000000,,,,,,,,,,,,,,,,,,,,,,,,,,,,,,,,,,,,,,,,,,,,,,,,,,,,,,,,,,,,,,,,,,,,,,,,,,,,,,,,,,,,,,
1676058952.500739,1676058952.501555,68.000000,0.000000,4287.436035,4276.538574,4305.000000,4294.615234,4294.102539,4232.307617,4294.358887,4305.769043,4288.077148,4265.000000,4537.307617,4482.179688,4351.794922,4386.153809,2334.000000,4.000000,90.000000,,,,0.000000,4.000000,4.000000,4.000000,4.000000,4.000000,4.000000,4.000000,4.000000,4.000000,4.000000,4.000000,4.000000,4.000000,4.000000,100.000000,,,,,,,,,,,,,,,,,,,,,,,,,,,,,,,,,,,,,,,,,,,,,,,,,,,,,,,,,,,,,,,,,,,,,,,,,,,,,,,,,,,,,,
1676058952.508547,1676058952.509264,69.000000,0.000000,4299.230957,4287.820313,4309.487305,4307.436035,4299.102539,4229.615234,4285.000000,4300.128418,4287.563965,4264.358887,4545.512695,4490.000000,4364.487305,4396.282227,2418.000000,4.000000,90.000000,,,,0.000000,4.000000,4.000000,4.000000,4.000000,4.000000,4.000000,4.000000,4.000000,4.000000,4.000000,4.000000,4.000000,4.000000,4.000000,100.000000,,,,,,,,,,,,,,,,,,,,,,,,,,,,,,,,,,,,,,,,,,,,,,,,,,,,,,,,,,,,,,,,,,,,,,,,,,,,,,,,,,,,,,
1676058952.516356,1676058952.517172,70.000000,0.000000,4308.205078,4296.282227,4316.410156,4313.974121,4306.794922,4220.897461,4280.128418,4300.128418,4284.871582,4271.922852,4555.128418,4495.641113,4373.205078,4404.358887,2346.000000,4.000000,90.000000,,,,0.000000,4.000000,4.000000,4.000000,4.000000,4.000000,4.000000,4.000000,4.000000,4.000000,4.000000,4.000000,4.000000,4.000000,4.000000,100.000000,,,,,,,,,,,,,,,,,,,,,,,,,,,,,,,,,,,,,,,,,,,,,,,,,,,,,,,,,,,,,,,,,,,,,,,,,,,,,,,,,,,,,,
1676058952.524164,1676058952.524981,71.000000,0.000000,4311.794922,4309.102539,4321.794922,4317.051270,4308.333496,4218.589844,4281.025879,4297.307617,4288.717773,4279.102539,4556.410156,4498.205078,4377.692383,4410.512695,2429.000000,4.000000,90.000000,,,,0.000000,4.000000,4.000000,4.000000,4.000000,4.000000,4.000000,4.000000,4.000000,4.000000,4.000000,4.000000,4.000000,4.000000,4.000000,100.000000,,,,,,,,,,,,,,,,,,,,,,,,,,,,,,,,,,,,,,,,,,,,,,,,,,,,,,,,,,,,,,,,,,,,,,,,,,,,,,,,,,,,,,
1676058952.531973,1676058952.532889,72.000000,0.000000,4313.974121,4315.128418,4320.897461,4318.205078,4308.205078,4230.769043,4283.333496,4297.051270,4295.769043,4280.128418,4556.410156,4503.846191,4380.897461,4413.717773,2376.000000,4.000000,90.000000,,,,0.000000,4.000000,4.000000,4.000000,4.000000,4.000000,4.000000,4.000000,4.000000,4.000000,4.000000,4.000000,4.000000,4.000000,4.000000,100.000000,,,,,,,,,,,,,,,,,,,,,,,,,,,,,,,,,,,,,,,,,,,,,,,,,,,,,,,,,,,,,,,,,,,,,,,,,,,,,,,,,,,,,,
1676058952.539781,1676058952.540697,73.000000,0.000000,4311.282227,4307.307617,4314.358887,4316.025879,4306.153809,4230.897461,4280.897461,4297.948730,4291.794922,4280.512695,4557.692383,4498.205078,4379.871582,4411.922852,2419.000000,4.000000,90.000000,,,,0.000000,4.000000,4.000000,4.000000,4.000000,4.000000,4.000000,4.000000,4.000000,4.000000,4.000000,4.000000,4.000000,4.000000,4.000000,100.000000,,,,,,,,,,,,,,,,,,,,,,,,,,,,,,,,,,,,,,,,,,,,,,,,,,,,,,,,,,,,,,,,,,,,,,,,,,,,,,,,,,,,,,
1676058952.547589,1676058952.548606,74.000000,0.000000,4310.897461,4307.179688,4318.717773,4317.307617,4304.615234,4217.692383,4280.256348,4305.897461,4290.897461,4279.871582,4565.256348,4493.589844,4378.974121,4413.461426,2717.000000,4.000000,90.000000,,,,0.000000,4.000000,4.000000,4.000000,4.000000,4.000000,4.000000,4.000000,4.000000,4.000000,4.000000,4.000000,4.000000,4.000000,4.000000,100.000000,,,,,,,,,,,,,,,,,,,,,,,,,,,,,,,,,,,,,,,,,,,,,,,,,,,,,,,,,,,,,,,,,,,,,,,,,,,,,,,,,,,,,,
1676058952.555398,1676058952.556414,75.000000,0.000000,4317.307617,4314.871582,4330.769043,4321.153809,4301.922852,4219.102539,4292.692383,4321.922852,4303.461426,4282.692383,4578.974121,4507.179688,4383.205078,4418.974121,2909.000000,4.000000,90.000000,,,,0.000000,4.000000,4.000000,4.000000,4.000000,4.000000,4.000000,4.000000,4.000000,4.000000,4.000000,4.000000,4.000000,4.000000,4.000000,100.000000,,,,,,,,,,,,,,,,,,,,,,,,,,,,,,,,,,,,,,,,,,,,,,,,,,,,,,,,,,,,,,,,,,,,,,,,,,,,,,,,,,,,,,
1676058952.563206,1676058952.564323,76.000000,0.000000,4313.717773,4305.769043,4325.641113,4317.436035,4295.641113,4230.769043,4304.743652,4326.282227,4313.589844,4284.743652,4581.282227,4510.128418,4384.743652,4415.000000,3122.000000,4.000000,90.000000,,,,0.000000,4.000000,4.000000,4.000000,4.000000,4.000000,4.000000,4.000000,4.000000,4.000000,4.000000,4.000000,4.000000,4.000000,4.000000,100.000000,,,,,,,,,,,,,,,,,,,,,,,,,,,,,,,,,,,,,,,,,,,,,,,,,,,,,,,,,,,,,,,,,,,,,,,,,,,,,,,,,,,,,,
1676058952.571015,1676058952.572131,77.000000,0.000000,4299.102539,4285.769043,4310.512695,4307.948730,4294.102539,4240.512695,4304.102539,4318.205078,4310.897461,4284.615234,4573.205078,4495.512695,4377.179688,4404.743652,3214.000000,4.000000,90.000000,,,,0.000000,4.000000,4.000000,4.000000,4.000000,4.000000,4.000000,4.000000,4.000000,4.000000,4.000000,4.000000,4.000000,4.000000,4.000000,100.000000,,,,,,,,,,,,,,,,,,,,,,,,,,,,,,,,,,,,,,,,,,,,,,,,,,,,,,,,,,,,,,,,,,,,,,,,,,,,,,,,,,,,,,
1676058952.578823,1676058952.579840,78.000000,0.000000,4291.153809,4278.461426,4304.358887,4300.512695,4296.794922,4248.205078,4301.538574,4313.974121,4303.717773,4279.487305,4571.794922,4487.051270,4366.153809,4396.282227,2717.000000,4.000000,90.000000,,,,0.000000,4.000000,4.000000,4.000000,4.000000,4.000000,4.000000,4.000000,4.000000,4.000000,4.000000,4.000000,4.000000,4.000000,4.000000,100.000000,1.000000,41.666668,4.000000,4.000000,4.000000,4.000000,4.000000,0.000000,4.000000,4.000000,4.000000,4.000000,4.000000,4.000000,4.000000,1.000000,4.137246,4.045704,0.407964,0.423944,0.135869,3.823022,2.505937,0.620455,0.266112,0.186227,4.177094,4.664065,0.655111,0.399889,0.122341,2.748139,1.859335,0.585185,0.270865,0.070577,0.446584,0.497726,0.315874,0.158779,0.052132,33.920246,7.280711,2.491505,0.421529,0.173570,1.377886,5.650746,1.657040,0.705248,0.135111,1.092319,5.074202,0.688095,0.586455,0.103928,1.276583,3.661781,0.348796,0.398395,0.171888,1.320447,2.354132,0.414612,0.366627,0.100016,3.964958,2.853094,0.853667,0.661120,0.128054,3.451185,4.532506,0.647230,0.564039,0.105711,2.433148,2.889892,0.612755,0.534906,0.281364,61.589931,26.934719,13.781200,4.049053,0.296207
1676058952.586631,1676058952.587648,79.000000,0.000000,4289.871582,4280.641113,4303.589844,4295.256348,4297.436035,4255.384766,4304.230957,4314.358887,4299.358887,4271.025879,4573.974121,4490.512695,4361.410156,4390.512695,2909.000000,4.000000,90.000000,,,,0.000000,4.000000,4.000000,4.000000,4.000000,4.000000,4.000000,4.000000,4.000000,4.000000,4.000000,4.000000,4.000000,4.000000,4.000000,100.000000,,,,,,,,,,,,,,,,,,,,,,,,,,,,,,,,,,,,,,,,,,,,,,,,,,,,,,,,,,,,,,,,,,,,,,,,,,,,,,,,,,,,,,
1676058952.594440,1676058952.595357,80.000000,0.000000,4285.897461,4277.436035,4296.410156,4292.820313,4295.000000,4258.974121,4299.487305,4309.615234,4296.538574,4265.769043,4569.743652,4486.922852,4358.461426,4381.410156,3122.000000,4.000000,90.000000,,,,0.000000,4.000000,4.000000,4.000000,4.000000,4.000000,4.000000,4.000000,4.000000,4.000000,4.000000,4.000000,4.000000,4.000000,4.000000,100.000000,,,,,,,,,,,,,,,,,,,,,,,,,,,,,,,,,,,,,,,,,,,,,,,,,,,,,,,,,,,,,,,,,,,,,,,,,,,,,,,,,,,,,,
1676058952.602248,1676058952.603165,81.000000,0.000000,4288.846191,4275.512695,4292.948730,4294.358887,4295.384766,4256.282227,4292.051270,4301.666504,4294.102539,4265.128418,4564.743652,4478.846191,4354.230957,4379.230957,3214.000000,4.000000,90.000000,,,,0.000000,4.000000,4.000000,4.000000,4.000000,4.000000,4.000000,4.000000,4.000000,4.000000,4.000000,4.000000,4.000000,4.000000,4.000000,100.000000,,,,,,,,,,,,,,,,,,,,,,,,,,,,,,,,,,,,,,,,,,,,,,,,,,,,,,,,,,,,,,,,,,,,,,,,,,,,,,,,,,,,,,
1676058952.610057,1676058952.610874,82.000000,0.000000,4294.871582,4284.871582,4302.051270,4300.000000,4299.230957,4251.794922,4299.102539,4303.461426,4292.820313,4266.282227,4568.077148,4484.871582,4359.871582,4390.641113,2717.000000,4.000000,90.000000,,,,0.000000,4.000000,4.000000,4.000000,4.000000,4.000000,4.000000,4.000000,4.000000,4.000000,4.000000,4.000000,4.000000,4.000000,4.000000,100.000000,,,,,,,,,,,,,,,,,,,,,,,,,,,,,,,,,,,,,,,,,,,,,,,,,,,,,,,,,,,,,,,,,,,,,,,,,,,,,,,,,,,,,,
1676058952.617865,1676058952.618682,83.000000,0.000000,4295.512695,4294.487305,4310.256348,4304.615234,4299.871582,4250.000000,4313.461426,4311.153809,4290.512695,4265.897461,4568.589844,4495.256348,4369.102539,4397.179688,2909.000000,4.000000,90.000000,,,,0.000000,4.000000,4.000000,4.000000,4.000000,4.000000,4.000000,4.000000,4.000000,4.000000,4.000000,4.000000,4.000000,4.000000,4.000000,100.000000,,,,,,,,,,,,,,,,,,,,,,,,,,,,,,,,,,,,,,,,,,,,,,,,,,,,,,,,,,,,,,,,,,,,,,,,,,,,,,,,,,,,,,
1676058952.625673,1676058952.626391,84.000000,0.000000,4301.410156,4295.000000,4313.077148,4305.641113,4296.538574,4251.410156,4312.563965,4305.512695,4284.230957,4264.743652,4559.358887,4494.102539,4367.692383,4398.846191,3122.000000,4.000000,90.000000,,,,0.000000,4.000000,4.000000,4.000000,4.000000,4.000000,4.000000,4.000000,4.000000,4.000000,4.000000,4.000000,4.000000,4.000000,4.000000,100.000000,,,,,,,,,,,,,,,,,,,,,,,,,,,,,,,,,,,,,,,,,,,,,,,,,,,,,,,,,,,,,,,,,,,,,,,,,,,,,,,,,,,,,,
1676058952.633482,1676058952.634199,85.000000,0.000000,4312.563965,4296.922852,4320.256348,4312.179688,4295.641113,4243.717773,4300.512695,4294.102539,4277.820313,4266.025879,4551.666504,4496.025879,4368.717773,4408.333496,3214.000000,4.000000,90.000000,,,,0.000000,4.000000,4.000000,4.000000,4.000000,4.000000,4.000000,4.000000,4.000000,4.000000,4.000000,4.000000,4.000000,4.000000,4.000000,100.000000,,,,,,,,,,,,,,,,,,,,,,,,,,,,,,,,,,,,,,,,,,,,,,,,,,,,,,,,,,,,,,,,,,,,,,,,,,,,,,,,,,,,,,
1676058952.641290,1676058952.641908,86.000000,0.000000,4313.974121,4306.282227,4330.128418,4322.820313,4300.641113,4234.743652,4297.563965,4302.307617,4281.282227,4272.948730,4558.717773,4507.948730,4377.692383,4416.538574,2717.000000,4.000000,90.000000,,,,0.000000,4.000000,4.000000,4.000000,4.000000,4.000000,4.000000,4.000000,4.000000,4.000000,4.000000,4.000000,4.000000,4.000000,4.000000,100.000000,,,,,,,,,,,,,,,,,,,,,,,,,,,,,,,,,,,,,,,,,,,,,,,,,,,,,,,,,,,,,,,,,,,,,,,,,,,,,,,,,,,,,,
1676058952.649099,1676058952.649716,87.000000,0.000000,4311.282227,4313.461426,4330.641113,4325.000000,4305.384766,4237.307617,4307.307617,4318.717773,4291.282227,4279.615234,4572.051270,4512.436035,4382.692383,4416.282227,2909.000000,4.000000,90.000000,,,,0.000000,4.000000,4.000000,4.000000,4.000000,4.000000,4.000000,4.000000,4.000000,4.000000,4.000000,4.000000,4.000000,4.000000,4.000000,100.000000,,,,,,,,,,,,,,,,,,,,,,,,,,,,,,,,,,,,,,,,,,,,,,,,,,,,,,,,,,,,,,,,,,,,,,,,,,,,,,,,,,,,,,
1676058952.656907,1676058952.657424,88.000000,0.000000,4315.000000,4312.692383,4327.563965,4324.743652,4306.410156,4243.461426,4313.461426,4325.256348,4297.948730,4281.282227,4571.538574,4511.153809,4383.589844,4415.384766,3122.000000,4.000000,90.000000,,,,0.000000,4.000000,4.000000,4.000000,4.000000,4.000000,4.000000,4.000000,4.000000,4.000000,4.000000,4.000000,4.000000,4.000000,4.000000,100.000000,,,,,,,,,,,,,,,,,,,,,,,,,,,,,,,,,,,,,,,,,,,,,,,,,,,,,,,,,,,,,,,,,,,,,,,,,,,,,,,,,,,,,,
1676058952.664715,1676058952.665233,89.000000,0.000000,4317.563965,4311.794922,4326.666504,4325.897461,4308.333496,4244.230957,4310.769043,4324.871582,4299.487305,4282.948730,4561.666504,4512.948730,4383.846191,4417.820313,3214.000000,4.000000,90.000000,,,,0.000000,4.000000,4.000000,4.000000,4.000000,4.000000,4.000000,4.000000,4.000000,4.000000,4.000000,4.000000,4.000000,4.000000,4.000000,100.000000,,,,,,,,,,,,,,,,,,,,,,,,,,,,,,,,,,,,,,,,,,,,,,,,,,,,,,,,,,,,,,,,,,,,,,,,,,,,,,,,,,,,,,
1676058952.672524,1676058952.672941,90.000000,0.000000,4312.436035,4311.025879,4321.794922,4321.025879,4311.666504,4244.615234,4312.948730,4320.897461,4299.102539,4282.820313,4553.974121,4506.282227,4378.974121,4415.000000,2717.000000,4.000000,90.000000,,,,0.000000,4.000000,4.000000,4.000000,4.000000,4.000000,4.000000,4.000000,4.000000,4.000000,4.000000,4.000000,4.000000,4.000000,4.000000,100.000000,,,,,,,,,,,,,,,,,,,,,,,,,,,,,,,,,,,,,,,,,,,,,,,,,,,,,,,,,,,,,,,,,,,,,,,,,,,,,,,,,,,,,,
1676058952.680332,1676058952.680750,91.000000,0.000000,4302.436035,4302.051270,4312.563965,4312.692383,4310.000000,4242.948730,4319.615234,4311.794922,4299.102539,4278.461426,4548.974121,4493.589844,4371.666504,4403.205078,2909.000000,4.000000,90.000000,,,,0.000000,4.000000,4.000000,4.000000,4.000000,4.000000,4.000000,4.000000,4.000000,4.000000,4.000000,4.000000,4.000000,4.000000,4.000000,100.000000,,,,,,,,,,,,,,,,,,,,,,,,,,,,,,,,,,,,,,,,,,,,,,,,,,,,,,,,,,,,,,,,,,,,,,,,,,,,,,,,,,,,,,
1676058952.688141,1676058952.688458,92.000000,0.000000,4293.333496,4291.794922,4300.641113,4304.487305,4306.410156,4241.794922,4315.384766,4301.666504,4297.948730,4276.794922,4537.692383,4488.846191,4369.487305,4392.948730,3122.000000,4.000000,90.000000,,,,0.000000,4.000000,4.000000,4.000000,4.000000,4.000000,4.000000,4.000000,4.000000,4.000000,4.000000,4.000000,4.000000,4.000000,4.000000,100.000000,,,,,,,,,,,,,,,,,,,,,,,,,,,,,,,,,,,,,,,,,,,,,,,,,,,,,,,,,,,,,,,,,,,,,,,,,,,,,,,,,,,,,,
1676058952.695949,1676058952.696367,93.000000,0.000000,4291.922852,4291.794922,4294.358887,4298.077148,4306.922852,4263.846191,4303.205078,4296.025879,4296.794922,4277.436035,4526.922852,4487.692383,4368.205078,4393.846191,3214.000000,4.000000,90.000000,,,,0.000000,4.000000,4.000000,4.000000,4.000000,4.000000,4.000000,4.000000,4.000000,4.000000,4.000000,4.000000,4.000000,4.000000,4.000000,100.000000,,,,,,,,,,,,,,,,,,,,,,,,,,,,,,,,,,,,,,,,,,,,,,,,,,,,,,,,,,,,,,,,,,,,,,,,,,,,,,,,,,,,,,
1676058952.703757,1676058952.704175,94.000000,0.000000,4295.128418,4294.615234,4294.871582,4296.538574,4302.307617,4305.384766,4295.897461,4294.743652,4295.769043,4271.025879,4523.717773,4482.051270,4361.538574,4393.333496,2717.000000,4.000000,90.000000,,,,0.000000,4.000000,4.000000,4.000000,4.000000,4.000000,4.000000,4.000000,4.000000,4.000000,4.000000,4.000000,4.000000,4.000000,4.000000,100.000000,,,,,,,,,,,,,,,,,3.937575,4.416372,0.397761,0.453877,0.150486,3.681095,2.678360,0.539503,0.308562,0.181083,3.953326,5.311832,0.651291,0.432427,0.106504,2.564515,2.172544,0.524454,0.284545,0.075727,0.413407,0.477604,0.267230,0.153962,0.052053,12.508359,5.685735,1.142202,0.362727,0.145880,1.239267,4.866438,1.404480,0.589875,0.134148,0.998807,5.085610,0.726060,0.688981,0.093161,1.358757,4.311086,0.323123,0.419110,0.170812,1.535518,2.933702,0.363623,0.380030,0.097629,4.422531,3.391208,0.805695,0.699648,0.122219,3.207608,5.367864,0.575810,0.623081,0.102312,2.599372,3.297293,0.496285,0.562480,0.298256,88.100243,38.671242,19.583605,5.614086,0.330574
1676058952.711566,1676058952.712084,95.000000,0.000000,4294.102539,4294.615234,4292.820313,4296.794922,4296.153809,4353.333496,4294.615234,4293.717773,4293.205078,4263.974121,4519.615234,4474.487305,4356.025879,4383.333496,2909.000000,4.000000,90.000000,,,,0.000000,4.000000,4.000000,4.000000,4.000000,4.000000,4.000000,4.000000,4.000000,4.000000,4.000000,4.000000,4.000000,4.000000,4.000000,100.000000,,,,,,,,,,,,,,,,,,,,,,,,,,,,,,,,,,,,,,,,,,,,,,,,,,,,,,,,,,,,,,,,,,,,,,,,,,,,,,,,,,,,,,
1676058952.719374,1676058952.719892,96.000000,0.000000,4292.948730,4293.846191,4292.179688,4296.410156,4295.512695,4422.307617,4293.205078,4286.410156,4285.256348,4264.871582,4515.769043,4473.589844,4357.179688,4378.974121,3122.000000,4.000000,90.000000,,,,0.000000,4.000000,4.000000,4.000000,4.000000,4.000000,4.000000,4.000000,4.000000,4.000000,4.000000,4.000000,4.000000,4.000000,4.000000,100.000000,,,,,,,,,,,,,,,,,,,,,,,,,,,,,,,,,,,,,,,,,,,,,,,,,,,,,,,,,,,,,,,,,,,,,,,,,,,,,,,,,,,,,,
1676058952.727183,1676058952.727800,97.000000,0.000000,4301.410156,4297.307617,4302.179688,4302.948730,4297.436035,4529.871582,4292.307617,4277.948730,4277.563965,4267.179688,4517.820313,4482.307617,4362.051270,4387.307617,3214.000000,4.000000,90.000000,,,,0.000000,4.000000,4.000000,4.000000,4.000000,4.000000,4.000000,4.000000,4.000000,4.000000,4.000000,4.000000,4.000000,4.000000,4.000000,100.000000,,,,,,,,,,,,,,,,,,,,,,,,,,,,,,,,,,,,,,,,,,,,,,,,,,,,,,,,,,,,,,,,,,,,,,,,,,,,,,,,,,,,,,
1676058952.734991,1676058952.735609,98.000000,0.000000,4311.794922,4301.794922,4315.512695,4314.102539,4299.743652,4667.051270,4295.000000,4283.077148,4276.538574,4264.102539,4521.025879,4489.871582,4365.256348,4396.666504,2717.000000,4.000000,90.000000,,,,0.000000,4.000000,4.000000,4.000000,4.000000,4.000000,4.000000,4.000000,4.000000,4.000000,4.000000,4.000000,4.000000,4.000000,4.000000,100.000000,,,,,,,,,,,,,,,,,,,,,,,,,,,,,,,,,,,,,,,,,,,,,,,,,,,,,,,,,,,,,,,,,,,,,,,,,,,,,,,,,,,,,,
1676058952.742799,1676058952.743517,99.000000,0.000000,4313.333496,4300.641113,4318.333496,4313.333496,4302.307617,4758.846191,4302.692383,4300.512695,4277.820313,4262.179688,4522.307617,4495.512695,4366.282227,4399.487305,2909.000000,4.000000,90.000000,,,,0.000000,4.000000,4.000000,4.000000,4.000000,4.000000,4.000000,4.000000,4.000000,4.000000,4.000000,4.000000,4.000000,4.000000,4.000000,100.000000,,,,,,,,,,,,,,,,,,,,,,,,,,,,,,,,,,,,,,,,,,,,,,,,,,,,,,,,,,,,,,,,,,,,,,,,,,,,,,,,,,,,,,
1676058952.750608,1676058952.751326,100.000000,0.000000,4305.384766,4298.333496,4315.641113,4310.128418,4304.871582,4743.333496,4313.461426,4315.769043,4284.358887,4263.846191,4523.461426,4505.256348,4365.128418,4397.820313,3122.000000,4.000000,90.000000,,,,0.000000,4.000000,4.000000,4.000000,4.000000,4.000000,4.000000,4.000000,4.000000,4.000000,4.000000,4.000000,4.000000,4.000000,4.000000,100.000000,,,,,,,,,,,,,,,,,,,,,,,,,,,,,,,,,,,,,,,,,,,,,,,,,,,,,,,,,,,,,,,,,,,,,,,,,,,,,,,,,,,,,,
1676058952.758416,1676058952.759234,101.000000,0.000000,4297.051270,4296.794922,4313.461426,4311.282227,4301.153809,4678.974121,4320.384766,4325.384766,4293.461426,4265.897461,4519.102539,4506.410156,4357.948730,4396.153809,3214.000000,4.000000,90.000000,,,,0.000000,4.000000,4.000000,4.000000,4.000000,4.000000,4.000000,4.000000,4.000000,4.000000,4.000000,4.000000,4.000000,4.000000,4.000000,100.000000,,,,,,,,,,,,,,,,,,,,,,,,,,,,,,,,,,,,,,,,,,,,,,,,,,,,,,,,,,,,,,,,,,,,,,,,,,,,,,,,,,,,,,
1676058952.766225,1676058952.767042,102.000000,0.000000,4296.922852,4294.487305,4314.615234,4309.487305,4296.666504,4640.128418,4322.179688,4333.077148,4294.871582,4270.897461,4512.692383,4498.461426,4350.384766,4394.230957,2717.000000,4.000000,90.000000,,,,0.000000,4.000000,4.000000,4.000000,4.000000,4.000000,4.000000,4.000000,4.000000,4.000000,4.000000,4.000000,4.000000,4.000000,4.000000,100.000000,,,,,,,,,,,,,,,,,,,,,,,,,,,,,,,,,,,,,,,,,,,,,,,,,,,,,,,,,,,,,,,,,,,,,,,,,,,,,,,,,,,,,,
1676058952.774033,1676058952.774751,103.000000,0.000000,4306.025879,4302.436035,4322.820313,4312.820313,4303.974121,4612.307617,4324.102539,4337.820313,4300.897461,4276.922852,4519.743652,4502.436035,4355.897461,4399.487305,2909.000000,4.000000,90.000000,,,,0.000000,4.000000,4.000000,4.000000,4.000000,4.000000,4.000000,4.000000,4.000000,4.000000,4.000000,4.000000,4.000000,4.000000,4.000000,100.000000,,,,,,,,,,,,,,,,,,,,,,,,,,,,,,,,,,,,,,,,,,,,,,,,,,,,,,,,,,,,,,,,,,,,,,,,,,,,,,,,,,,,,,
1676058952.781841,1676058952.782559,104.000000,0.000000,4310.512695,4314.230957,4329.487305,4321.538574,4313.205078,4579.102539,4324.487305,4337.307617,4316.410156,4288.077148,4529.743652,4515.000000,4372.692383,4410.512695,3122.000000,4.000000,90.000000,,,,0.000000,4.000000,4.000000,4.000000,4.000000,4.000000,4.000000,4.000000,4.000000,4.000000,4.000000,4.000000,4.000000,4.000000,4.000000,100.000000,,,,,,,,,,,,,,,,,,,,,,,,,,,,,,,,,,,,,,,,,,,,,,,,,,,,,,,,,,,,,,,,,,,,,,,,,,,,,,,,,,,,,,
1676058952.789650,1676058952.790268,105.000000,0.000000,4302.820313,4308.461426,4322.563965,4319.743652,4311.025879,4555.128418,4316.794922,4325.897461,4319.230957,4296.922852,4527.179688,4513.589844,4377.436035,4409.102539,3214.000000,4.000000,90.000000,,,,0.000000,4.000000,4.000000,4.000000,4.000000,4.000000,4.000000,4.000000,4.000000,4.000000,4.000000,4.000000,4.000000,4.000000,4.000000,100.000000,,,,,,,,,,,,,,,,,,,,,,,,,,,,,,,,,,,,,,,,,,,,,,,,,,,,,,,,,,,,,,,,,,,,,,,,,,,,,,,,,,,,,,
1676058952.797458,1676058952.798076,106.000000,0.000000,4295.769043,4297.820313,4309.743652,4311.538574,4306.922852,4535.769043,4304.615234,4310.641113,4307.563965,4290.000000,4522.948730,4501.153809,4368.717773,4400.256348,2717.000000,4.000000,90.000000,,,,0.000000,4.000000,4.000000,4.000000,4.000000,4.000000,4.000000,4.000000,4.000000,4.000000,4.000000,4.000000,4.000000,4.000000,4.000000,100.000000,,,,,,,,,,,,,,,,,,,,,,,,,,,,,,,,,,,,,,,,,,,,,,,,,,,,,,,,,,,,,,,,,,,,,,,,,,,,,,,,,,,,,,
1676058952.805267,1676058952.805785,107.000000,0.000000,4294.615234,4298.333496,4307.051270,4309.871582,4309.487305,4517.948730,4303.461426,4308.974121,4304.102539,4280.256348,4521.922852,4493.846191,4366.410156,4397.563965,2909.000000,4.000000,90.000000,,,,0.000000,4.000000,4.000000,4.000000,4.000000,4.000000,4.000000,4.000000,4.000000,4.000000,4.000000,4.000000,4.000000,4.000000,4.000000,100.000000,,,,,,,,,,,,,,,,,,,,,,,,,,,,,,,,,,,,,,,,,,,,,,,,,,,,,,,,,,,,,,,,,,,,,,,,,,,,,,,,,,,,,,
1676058952.813075,1676058952.813593,108.000000,0.000000,4296.922852,4299.615234,4310.641113,4309.230957,4311.025879,4505.128418,4311.922852,4310.000000,4304.102539,4281.153809,4513.461426,4493.205078,4365.897461,4393.077148,3122.000000,4.000000,90.000000,,,,0.000000,4.000000,4.000000,4.000000,4.000000,4.000000,4.000000,4.000000,4.000000,4.000000,4.000000,4.000000,4.000000,4.000000,4.000000,100.000000,,,,,,,,,,,,,,,,,,,,,,,,,,,,,,,,,,,,,,,,,,,,,,,,,,,,,,,,,,,,,,,,,,,,,,,,,,,,,,,,,,,,,,
1676058952.820883,1676058952.821302,109.000000,0.000000,4300.769043,4300.897461,4309.615234,4307.692383,4308.205078,4488.461426,4309.358887,4300.512695,4292.948730,4281.794922,4504.871582,4492.179688,4360.897461,4388.589844,3214.000000,4.000000,90.000000,,,,0.000000,4.000000,4.000000,4.000000,4.000000,4.000000,4.000000,4.000000,4.000000,4.000000,4.000000,4.000000,4.000000,4.000000,4.000000,100.000000,,,,,,,,,,,,,,,,,,,,,,,,,,,,,,,,,,,,,,,,,,,,,,,,,,,,,,,,,,,,,,,,,,,,,,,,,,,,,,,,,,,,,,
1676058952.828692,1676058952.829110,110.000000,0.000000,4305.256348,4310.128418,4307.307617,4312.820313,4304.871582,4468.974121,4295.769043,4296.153809,4278.846191,4272.692383,4502.307617,4489.358887,4356.153809,4391.410156,2717.000000,4.000000,90.000000,,,,0.000000,4.000000,4.000000,4.000000,4.000000,4.000000,4.000000,4.000000,4.000000,4.000000,4.000000,4.000000,4.000000,4.000000,4.000000,100.000000,,,,,,,,,,,,,,,,,3.649340,4.606689,0.432231,0.467851,0.163339,3.555258,2.773122,0.437407,0.348358,0.190510,3.600456,5.594650,0.698513,0.449165,0.099012,2.291689,2.440992,0.490112,0.291468,0.083190,0.378301,0.469358,0.210459,0.138637,0.052932,3.880000,4.759621,0.543839,0.325644,0.138738,0.984742,3.839909,1.217553,0.521181,0.129038,1.022196,5.054257,0.762024,0.807212,0.093169,1.458972,4.840068,0.301720,0.436565,0.163257,1.785870,3.458695,0.313642,0.388627,0.103265,5.158792,3.792891,0.807778,0.703113,0.126010,3.062299,5.926728,0.560957,0.643667,0.102767,2.909128,3.668204,0.410666,0.567469,0.323313,106.946075,47.518040,23.728111,6.694166,0.357876
1676058952.836500,1676058952.836819,111.000000,0.000000,4305.769043,4313.974121,4310.769043,4314.230957,4306.922852,4453.077148,4294.358887,4304.487305,4278.461426,4273.717773,4511.153809,4491.922852,4353.717773,4393.205078,2909.000000,4.000000,90.000000,,,,0.000000,4.000000,4.000000,4.000000,4.000000,4.000000,4.000000,4.000000,4.000000,4.000000,4.000000,4.000000,4.000000,4.000000,4.000000,100.000000,,,,,,,,,,,,,,,,,,,,,,,,,,,,,,,,,,,,,,,,,,,,,,,,,,,,,,,,,,,,,,,,,,,,,,,,,,,,,,,,,,,,,,
1676058952.844308,1676058952.844627,112.000000,0.000000,4303.461426,4303.461426,4314.487305,4309.230957,4305.384766,4438.333496,4298.461426,4306.282227,4283.846191,4279.743652,4517.948730,4493.205078,4351.153809,4386.922852,3122.000000,4.000000,90.000000,,,,0.000000,4.000000,4.000000,4.000000,4.000000,4.000000,4.000000,4.000000,4.000000,4.000000,4.000000,4.000000,4.000000,4.000000,4.000000,100.000000,,,,,,,,,,,,,,,,,,,,,,,,,,,,,,,,,,,,,,,,,,,,,,,,,,,,,,,,,,,,,,,,,,,,,,,,,,,,,,,,,,,,,,
1676058952.852117,1676058952.852336,113.000000,0.000000,4305.256348,4302.436035,4310.769043,4309.487305,4295.897461,4422.820313,4289.871582,4295.897461,4280.641113,4271.922852,4511.666504,4488.589844,4356.922852,4387.563965,3214.000000,4.000000,90.000000,,,,0.000000,4.000000,4.000000,4.000000,4.000000,4.000000,4.000000,4.000000,4.000000,4.000000,4.000000,4.000000,4.000000,4.000000,4.000000,100.000000,,,,,,,,,,,,,,,,,,,,,,,,,,,,,,,,,,,,,,,,,,,,,,,,,,,,,,,,,,,,,,,,,,,,,,,,,,,,,,,,,,,,,,
1676058952.859925,1676058952.860244,114.000000,0.000000,4303.717773,4309.615234,4307.692383,4311.794922,4297.692383,4413.589844,4289.871582,4292.436035,4275.128418,4266.025879,4512.307617,4488.717773,4366.410156,4395.769043,2717.000000,4.000000,90.000000,,,,0.000000,4.000000,4.000000,4.000000,4.000000,4.000000,4.000000,4.000000,4.000000,4.000000,4.000000,4.000000,4.000000,4.000000,4.000000,100.000000,,,,,,,,,,,,,,,,,,,,,,,,,,,,,,,,,,,,,,,,,,,,,,,,,,,,,,,,,,,,,,,,,,,,,,,,,,,,,,,,,,,,,,
1676058952.867734,1676058952.868053,115.000000,0.000000,4300.000000,4305.769043,4312.820313,4309.487305,4308.333496,4411.025879,4305.128418,4304.487305,4279.230957,4272.436035,4522.051270,4492.692383,4362.563965,4397.179688,2909.000000,4.000000,90.000000,,,,0.000000,4.000000,4.000000,4.000000,4.000000,4.000000,4.000000,4.000000,4.000000,4.000000,4.000000,4.000000,4.000000,4.000000,4.000000,100.000000,,,,,,,,,,,,,,,,,,,,,,,,,,,,,,,,,,,,,,,,,,,,,,,,,,,,,,,,,,,,,,,,,,,,,,,,,,,,,,,,,,,,,,
1676058952.875542,1676058952.875961,116.000000,0.000000,4300.769043,4299.487305,4314.615234,4308.077148,4303.205078,4409.230957,4310.512695,4315.384766,4290.641113,4278.974121,4521.153809,4494.102539,4365.000000,4397.563965,3122.000000,4.000000,90.000000,,,,0.000000,4.000000,4.000000,4.000000,4.000000,4.000000,4.000000,4.000000,4.000000,4.000000,4.000000,4.000000,4.000000,4.000000,4.000000,100.000000,,,,,,,,,,,,,,,,,,,,,,,,,,,,,,,,,,,,,,,,,,,,,,,,,,,,,,,,,,,,,,,,,,,,,,,,,,,,,,,,,,,,,,
1676058952.883350,1676058952.883770,117.000000,0.000000,4298.974121,4298.717773,4304.102539,4308.589844,4294.871582,4406.922852,4302.051270,4312.179688,4295.000000,4277.307617,4509.743652,4491.153809,4372.179688,4395.897461,3214.000000,4.000000,90.000000,,,,0.000000,4.000000,4.000000,4.000000,4.000000,4.000000,4.000000,4.000000,4.000000,4.000000,4.000000,4.000000,4.000000,4.000000,4.000000,100.000000,,,,,,,,,,,,,,,,,,,,,,,,,,,,,,,,,,,,,,,,,,,,,,,,,,,,,,,,,,,,,,,,,,,,,,,,,,,,,,,,,,,,,,
1676058952.891159,1676058952.891678,118.000000,0.000000,4292.436035,4298.717773,4295.128418,4305.769043,4301.410156,4401.410156,4295.897461,4304.487305,4289.102539,4276.410156,4504.487305,4485.384766,4363.846191,4386.282227,2717.000000,4.000000,90.000000,,,,0.000000,4.000000,4.000000,4.000000,4.000000,4.000000,4.000000,4.000000,4.000000,4.000000,4.000000,4.000000,4.000000,4.000000,4.000000,100.000000,,,,,,,,,,,,,,,,,,,,,,,,,,,,,,,,,,,,,,,,,,,,,,,,,,,,,,,,,,,,,,,,,,,,,,,,,,,,,,,,,,,,,,
1676058952.898967,1676058952.899486,119.000000,0.000000,4292.692383,4300.128418,4298.077148,4306.410156,4307.436035,4391.922852,4290.641113,4297.692383,4286.666504,4277.051270,4503.974121,4477.692383,4357.307617,4378.717773,2909.000000,4.000000,90.000000,,,,0.000000,4.000000,4.000000,4.000000,4.000000,4.000000,4.000000,4.000000,4.000000,4.000000,4.000000,4.000000,4.000000,4.000000,4.000000,100.000000,,,,,,,,,,,,,,,,,,,,,,,,,,,,,,,,,,,,,,,,,,,,,,,,,,,,,,,,,,,,,,,,,,,,,,,,,,,,,,,,,,,,,,
1676058952.906776,1676058952.907395,120.000000,0.000000,4296.794922,4300.384766,4305.000000,4310.128418,4303.461426,4385.512695,4285.384766,4286.538574,4288.333496,4276.410156,4503.589844,4473.589844,4365.512695,4384.487305,3122.000000,4.000000,90.000000,,,,0.000000,4.000000,4.000000,4.000000,4.000000,4.000000,4.000000,4.000000,4.000000,4.000000,4.000000,4.000000,4.000000,4.000000,4.000000,100.000000,,,,,,,,,,,,,,,,,,,,,,,,,,,,,,,,,,,,,,,,,,,,,,,,,,,,,,,,,,,,,,,,,,,,,,,,,,,,,,,,,,,,,,
1676058952.914584,1676058952.915203,121.000000,0.000000,4295.128418,4296.282227,4307.563965,4309.102539,4302.051270,4384.871582,4289.230957,4278.846191,4283.974121,4281.410156,4501.794922,4480.512695,4370.512695,4395.256348,3214.000000,4.000000,90.000000,,,,0.000000,4.000000,4.000000,4.000000,4.000000,4.000000,4.000000,4.000000,4.000000,4.000000,4.000000,4.000000,4.000000,4.000000,4.000000,100.000000,,,,,,,,,,,,,,,,,,,,,,,,,,,,,,,,,,,,,,,,,,,,,,,,,,,,,,,,,,,,,,,,,,,,,,,,,,,,,,,,,,,,,,
1676058952.922392,1676058952.923111,122.000000,0.000000,4298.461426,4300.512695,4309.487305,4312.948730,4308.333496,4378.974121,4294.615234,4278.974121,4278.333496,4278.717773,4499.358887,4488.974121,4366.282227,4398.589844,2717.000000,4.000000,90.000000,,,,0.000000,4.000000,4.000000,4.000000,4.000000,4.000000,4.000000,4.000000,4.000000,4.000000,4.000000,4.000000,4.000000,4.000000,4.000000,100.000000,,,,,,,,,,,,,,,,,,,,,,,,,,,,,,,,,,,,,,,,,,,,,,,,,,,,,,,,,,,,,,,,,,,,,,,,,,,,,,,,,,,,,,
