title:Psychopy_Andrew_1_2023-02-10T124730.907935, start timestamp:1676062050.820130, stop timestamp:1676062111.842672, headset type:EPOCX, headset serial:E2020A42, headset firmware:720, channels:125, sampling rate:eeg_128;pow_8, samples:7816      , version:2.1, 
Timestamp,OriginalTimestamp,EEG.Counter,EEG.Interpolated,EEG.AF3,EEG.F7,EEG.F3,EEG.FC5,EEG.T7,EEG.P7,EEG.O1,EEG.O2,EEG.P8,EEG.T8,EEG.FC6,EEG.F4,EEG.F8,EEG.AF4,EEG.RawCq,EEG.Battery,EEG.BatteryPercent,MarkerIndex,MarkerType,MarkerValueInt,EEG.MarkerHardware,CQ.AF3,CQ.F7,CQ.F3,CQ.FC5,CQ.T7,CQ.P7,CQ.O1,CQ.O2,CQ.P8,CQ.T8,CQ.FC6,CQ.F4,CQ.F8,CQ.AF4,CQ.Overall,EQ.SampleRateQuality,EQ.OVERALL,EQ.AF3,EQ.F7,EQ.F3,EQ.FC5,EQ.T7,EQ.P7,EQ.O1,EQ.O2,EQ.P8,EQ.T8,EQ.FC6,EQ.F4,EQ.F8,EQ.AF4,POW.AF3.Theta,POW.AF3.Alpha,POW.AF3.BetaL,POW.AF3.BetaH,POW.AF3.Gamma,POW.F7.Theta,POW.F7.Alpha,POW.F7.BetaL,POW.F7.BetaH,POW.F7.Gamma,POW.F3.Theta,POW.F3.Alpha,POW.F3.BetaL,POW.F3.BetaH,POW.F3.Gamma,POW.FC5.Theta,POW.FC5.Alpha,POW.FC5.BetaL,POW.FC5.BetaH,POW.FC5.Gamma,POW.T7.Theta,POW.T7.Alpha,POW.T7.BetaL,POW.T7.BetaH,POW.T7.Gamma,POW.P7.Theta,POW.P7.Alpha,POW.P7.BetaL,POW.P7.BetaH,POW.P7.Gamma,POW.O1.Theta,POW.O1.Alpha,POW.O1.BetaL,POW.O1.BetaH,POW.O1.Gamma,POW.O2.Theta,POW.O2.Alpha,POW.O2.BetaL,POW.O2.BetaH,POW.O2.Gamma,POW.P8.Theta,POW.P8.Alpha,POW.P8.BetaL,POW.P8.BetaH,POW.P8.Gamma,POW.T8.Theta,POW.T8.Alpha,POW.T8.BetaL,POW.T8.BetaH,POW.T8.Gamma,POW.FC6.Theta,POW.FC6.Alpha,POW.FC6.BetaL,POW.FC6.BetaH,POW.FC6.Gamma,POW.F4.Theta,POW.F4.Alpha,POW.F4.BetaL,POW.F4.BetaH,POW.F4.Gamma,POW.F8.Theta,POW.F8.Alpha,POW.F8.BetaL,POW.F8.BetaH,POW.F8.Gamma,POW.AF4.Theta,POW.AF4.Alpha,POW.AF4.BetaL,POW.AF4.BetaH,POW.AF4.Gamma
1676062050.820130,1676062050.820555,62.000000,0.000000,4291.410156,4291.282227,4309.358887,4323.333496,4320.128418,4282.179688,4302.051270,4304.615234,4280.128418,4275.384766,4475.256348,4488.077148,4375.128418,4412.051270,0.000000,4.000000,79.000000,,,,0.000000,4.000000,4.000000,4.000000,4.000000,4.000000,4.000000,4.000000,4.000000,4.000000,4.000000,4.000000,4.000000,4.000000,4.000000,100.000000,,,,,,,,,,,,,,,,,1.860243,13.416059,0.240735,0.392391,0.129427,1.019344,6.469415,0.238866,0.385345,0.264022,2.633662,14.502180,0.533193,0.454780,0.224619,1.849841,7.439510,0.345442,0.439320,0.215233,1.338148,2.767694,0.483660,0.216148,0.108307,1.970787,16.530191,0.859360,0.299006,0.108795,2.471484,38.449753,2.725712,0.473963,0.121322,1.893056,29.195383,3.503995,0.755935,0.180302,1.200815,11.684355,2.514530,0.348371,0.101468,2.346282,6.693478,3.105044,0.393320,0.142648,2.663683,10.281939,3.979836,0.361483,0.368293,4.537054,16.336906,3.071157,0.650406,0.245015,2.109879,12.487825,2.401740,0.329964,0.393409,3.118492,12.005150,1.219940,0.290441,0.194899
1676062050.827938,1676062050.828463,63.000000,0.000000,4301.922852,4298.077148,4313.333496,4327.563965,4321.025879,4270.000000,4295.769043,4292.307617,4279.487305,4277.563965,4473.589844,4488.589844,4378.461426,4413.205078,0.000000,4.000000,79.000000,,,,0.000000,4.000000,4.000000,4.000000,4.000000,4.000000,4.000000,4.000000,4.000000,4.000000,4.000000,4.000000,4.000000,4.000000,4.000000,100.000000,,,,,,,,,,,,,,,,,,,,,,,,,,,,,,,,,,,,,,,,,,,,,,,,,,,,,,,,,,,,,,,,,,,,,,,,,,,,,,,,,,,,,,
1676062050.835747,1676062050.836272,64.000000,0.000000,4325.000000,4311.025879,4322.563965,4341.282227,4327.820313,4271.025879,4285.641113,4276.153809,4280.384766,4289.743652,4485.897461,4497.307617,4394.230957,4429.871582,2413.000000,4.000000,79.000000,,,,0.000000,4.000000,4.000000,4.000000,4.000000,4.000000,4.000000,4.000000,4.000000,4.000000,4.000000,4.000000,4.000000,4.000000,4.000000,100.000000,,,,,,,,,,,,,,,,,,,,,,,,,,,,,,,,,,,,,,,,,,,,,,,,,,,,,,,,,,,,,,,,,,,,,,,,,,,,,,,,,,,,,,
1676062050.843555,1676062050.844180,65.000000,0.000000,4341.025879,4321.538574,4349.615234,4355.641113,4340.512695,4277.307617,4282.692383,4272.948730,4275.000000,4298.846191,4507.948730,4519.871582,4413.461426,4454.487305,2403.000000,4.000000,79.000000,,,,0.000000,4.000000,4.000000,4.000000,4.000000,4.000000,4.000000,4.000000,4.000000,4.000000,4.000000,4.000000,4.000000,4.000000,4.000000,100.000000,,,,,,,,,,,,,,,,,,,,,,,,,,,,,,,,,,,,,,,,,,,,,,,,,,,,,,,,,,,,,,,,,,,,,,,,,,,,,,,,,,,,,,
1676062050.851364,1676062050.851988,66.000000,0.000000,4340.512695,4322.820313,4372.692383,4362.051270,4345.641113,4277.436035,4291.410156,4279.102539,4277.820313,4297.307617,4513.846191,4539.358887,4411.538574,4458.333496,2279.000000,4.000000,79.000000,,,,0.000000,4.000000,4.000000,4.000000,4.000000,4.000000,4.000000,4.000000,4.000000,4.000000,4.000000,4.000000,4.000000,4.000000,4.000000,100.000000,,,,,,,,,,,,,,,,,,,,,,,,,,,,,,,,,,,,,,,,,,,,,,,,,,,,,,,,,,,,,,,,,,,,,,,,,,,,,,,,,,,,,,
1676062050.859172,1676062050.859897,67.000000,0.000000,4339.871582,4321.282227,4369.358887,4361.025879,4341.153809,4280.641113,4295.897461,4287.692383,4292.436035,4300.641113,4509.743652,4543.589844,4403.333496,4448.717773,2176.000000,4.000000,79.000000,,,,0.000000,4.000000,4.000000,4.000000,4.000000,4.000000,4.000000,4.000000,4.000000,4.000000,4.000000,4.000000,4.000000,4.000000,4.000000,100.000000,,,,,,,,,,,,,,,,,,,,,,,,,,,,,,,,,,,,,,,,,,,,,,,,,,,,,,,,,,,,,,,,,,,,,,,,,,,,,,,,,,,,,,
1676062050.866980,1676062050.867705,68.000000,0.000000,4331.282227,4307.051270,4347.436035,4344.230957,4333.461426,4290.256348,4293.846191,4303.974121,4306.153809,4307.820313,4508.846191,4536.794922,4401.282227,4442.436035,2252.000000,4.000000,79.000000,,,,0.000000,4.000000,4.000000,4.000000,4.000000,4.000000,4.000000,4.000000,4.000000,4.000000,4.000000,4.000000,4.000000,4.000000,4.000000,100.000000,,,,,,,,,,,,,,,,,,,,,,,,,,,,,,,,,,,,,,,,,,,,,,,,,,,,,,,,,,,,,,,,,,,,,,,,,,,,,,,,,,,,,,
1676062050.874789,1676062050.875414,69.000000,0.000000,4302.051270,4284.615234,4325.000000,4317.179688,4325.000000,4291.282227,4297.307617,4323.461426,4307.692383,4302.820313,4498.333496,4519.615234,4387.436035,4426.025879,2358.000000,4.000000,79.000000,,,,0.000000,4.000000,4.000000,4.000000,4.000000,4.000000,4.000000,4.000000,4.000000,4.000000,4.000000,4.000000,4.000000,4.000000,4.000000,100.000000,,,,,,,,,,,,,,,,,,,,,,,,,,,,,,,,,,,,,,,,,,,,,,,,,,,,,,,,,,,,,,,,,,,,,,,,,,,,,,,,,,,,,,
1676062050.882597,1676062050.883222,70.000000,0.000000,4276.282227,4275.897461,4306.922852,4306.794922,4315.384766,4282.436035,4303.333496,4331.922852,4301.666504,4286.025879,4477.948730,4495.512695,4367.436035,4403.077148,2181.000000,4.000000,79.000000,,,,0.000000,4.000000,4.000000,4.000000,4.000000,4.000000,4.000000,4.000000,4.000000,4.000000,4.000000,4.000000,4.000000,4.000000,4.000000,100.000000,,,,,,,,,,,,,,,,,,,,,,,,,,,,,,,,,,,,,,,,,,,,,,,,,,,,,,,,,,,,,,,,,,,,,,,,,,,,,,,,,,,,,,
1676062050.890406,1676062050.890931,71.000000,0.000000,4267.563965,4270.000000,4288.205078,4303.717773,4303.205078,4280.000000,4303.717773,4326.410156,4300.897461,4272.820313,4460.384766,4473.589844,4355.769043,4388.077148,2209.000000,4.000000,79.000000,,,,0.000000,4.000000,4.000000,4.000000,4.000000,4.000000,4.000000,4.000000,4.000000,4.000000,4.000000,4.000000,4.000000,4.000000,4.000000,100.000000,,,,,,,,,,,,,,,,,,,,,,,,,,,,,,,,,,,,,,,,,,,,,,,,,,,,,,,,,,,,,,,,,,,,,,,,,,,,,,,,,,,,,,
1676062050.898214,1676062050.898739,72.000000,0.000000,4261.025879,4251.922852,4271.410156,4290.000000,4291.025879,4282.179688,4299.871582,4313.717773,4295.256348,4262.563965,4443.333496,4455.128418,4341.282227,4375.128418,2024.000000,4.000000,79.000000,,,,0.000000,4.000000,4.000000,4.000000,4.000000,4.000000,4.000000,4.000000,4.000000,4.000000,4.000000,4.000000,4.000000,4.000000,4.000000,100.000000,,,,,,,,,,,,,,,,,,,,,,,,,,,,,,,,,,,,,,,,,,,,,,,,,,,,,,,,,,,,,,,,,,,,,,,,,,,,,,,,,,,,,,
1676062050.906022,1676062050.906448,73.000000,0.000000,4253.846191,4245.384766,4265.384766,4285.000000,4292.563965,4281.153809,4289.230957,4302.563965,4280.512695,4250.769043,4428.589844,4445.000000,4329.358887,4368.461426,2164.000000,4.000000,79.000000,,,,0.000000,4.000000,4.000000,4.000000,4.000000,4.000000,4.000000,4.000000,4.000000,4.000000,4.000000,4.000000,4.000000,4.000000,4.000000,100.000000,,,,,,,,,,,,,,,,,,,,,,,,,,,,,,,,,,,,,,,,,,,,,,,,,,,,,,,,,,,,,,,,,,,,,,,,,,,,,,,,,,,,,,
1676062050.913831,1676062050.914256,74.000000,0.000000,4262.051270,4261.538574,4272.820313,4293.974121,4303.717773,4276.410156,4277.563965,4291.666504,4273.846191,4250.384766,4431.153809,4447.179688,4335.128418,4378.077148,2603.000000,4.000000,79.000000,,,,0.000000,4.000000,4.000000,4.000000,4.000000,4.000000,4.000000,4.000000,4.000000,4.000000,4.000000,4.000000,4.000000,4.000000,4.000000,100.000000,,,,,,,,,,,,,,,,,,,,,,,,,,,,,,,,,,,,,,,,,,,,,,,,,,,,,,,,,,,,,,,,,,,,,,,,,,,,,,,,,,,,,,
1676062050.921639,1676062050.921965,75.000000,0.000000,4285.256348,4280.897461,4287.179688,4302.563965,4310.000000,4276.025879,4277.948730,4278.846191,4278.077148,4265.384766,4450.000000,4459.743652,4354.487305,4391.922852,2678.000000,4.000000,79.000000,,,,0.000000,4.000000,4.000000,4.000000,4.000000,4.000000,4.000000,4.000000,4.000000,4.000000,4.000000,4.000000,4.000000,4.000000,4.000000,100.000000,,,,,,,,,,,,,,,,,,,,,,,,,,,,,,,,,,,,,,,,,,,,,,,,,,,,,,,,,,,,,,,,,,,,,,,,,,,,,,,,,,,,,,
1676062050.929448,1676062050.929773,76.000000,0.000000,4308.717773,4296.282227,4305.256348,4320.641113,4321.794922,4285.256348,4287.307617,4270.769043,4277.820313,4281.025879,4469.230957,4478.589844,4374.102539,4405.769043,2955.000000,4.000000,79.000000,,,,0.000000,4.000000,4.000000,4.000000,4.000000,4.000000,4.000000,4.000000,4.000000,4.000000,4.000000,4.000000,4.000000,4.000000,4.000000,100.000000,,,,,,,,,,,,,,,,,,,,,,,,,,,,,,,,,,,,,,,,,,,,,,,,,,,,,,,,,,,,,,,,,,,,,,,,,,,,,,,,,,,,,,
1676062050.937256,1676062050.937482,77.000000,0.000000,4324.102539,4309.230957,4329.487305,4345.512695,4341.794922,4293.717773,4295.897461,4273.333496,4273.974121,4289.102539,4486.922852,4503.846191,4389.743652,4431.666504,3350.000000,4.000000,79.000000,,,,0.000000,4.000000,4.000000,4.000000,4.000000,4.000000,4.000000,4.000000,4.000000,4.000000,4.000000,4.000000,4.000000,4.000000,4.000000,100.000000,,,,,,,,,,,,,,,,,,,,,,,,,,,,,,,,,,,,,,,,,,,,,,,,,,,,,,,,,,,,,,,,,,,,,,,,,,,,,,,,,,,,,,
1676062050.945064,1676062050.945290,78.000000,0.000000,4329.102539,4310.897461,4351.922852,4350.256348,4345.769043,4295.000000,4305.384766,4287.820313,4282.948730,4299.615234,4507.051270,4531.794922,4401.794922,4451.410156,2603.000000,4.000000,79.000000,,,,0.000000,4.000000,4.000000,4.000000,4.000000,4.000000,4.000000,4.000000,4.000000,4.000000,4.000000,4.000000,4.000000,4.000000,4.000000,100.000000,1.000000,41.666668,4.000000,4.000000,1.000000,4.000000,4.000000,1.000000,3.000000,4.000000,4.000000,4.000000,4.000000,3.000000,4.000000,4.000000,1.535156,13.305789,0.232009,0.472067,0.120752,0.918086,6.567596,0.267131,0.422809,0.245095,2.331087,15.078606,0.584818,0.521458,0.200330,1.753210,7.694851,0.371477,0.479957,0.219183,1.289658,2.860095,0.479248,0.272727,0.110538,1.852766,15.766294,0.732839,0.311110,0.120895,2.305458,34.283222,1.866411,0.454997,0.120039,2.010056,25.754122,3.655285,0.729385,0.159250,0.871066,10.602207,2.728247,0.297922,0.102131,1.833524,5.407486,3.063397,0.368808,0.146043,2.112065,8.811010,3.795112,0.325823,0.386971,3.918619,14.880980,2.859959,0.620217,0.230779,1.821663,11.192509,2.262434,0.291064,0.385215,2.698360,11.198529,1.045580,0.299751,0.174580
1676062050.952873,1676062050.952999,79.000000,0.000000,4328.589844,4308.205078,4357.179688,4344.615234,4336.922852,4295.384766,4308.077148,4307.051270,4297.436035,4309.230957,4514.230957,4543.077148,4399.102539,4442.948730,2678.000000,4.000000,79.000000,,,,0.000000,4.000000,4.000000,4.000000,4.000000,4.000000,4.000000,4.000000,4.000000,4.000000,4.000000,4.000000,4.000000,4.000000,4.000000,100.000000,,,,,,,,,,,,,,,,,,,,,,,,,,,,,,,,,,,,,,,,,,,,,,,,,,,,,,,,,,,,,,,,,,,,,,,,,,,,,,,,,,,,,,
1676062050.960681,1676062050.960907,80.000000,0.000000,4325.000000,4309.102539,4341.794922,4339.615234,4329.743652,4295.897461,4297.563965,4320.256348,4311.922852,4310.897461,4503.333496,4532.948730,4392.307617,4431.282227,2955.000000,4.000000,79.000000,,,,0.000000,4.000000,4.000000,4.000000,4.000000,4.000000,4.000000,4.000000,4.000000,4.000000,4.000000,4.000000,4.000000,4.000000,4.000000,100.000000,,,,,,,,,,,,,,,,,,,,,,,,,,,,,,,,,,,,,,,,,,,,,,,,,,,,,,,,,,,,,,,,,,,,,,,,,,,,,,,,,,,,,,
1676062050.968490,1676062050.968715,81.000000,0.000000,4307.563965,4289.871582,4318.589844,4323.461426,4322.692383,4290.641113,4294.102539,4328.205078,4321.410156,4309.487305,4495.256348,4516.153809,4392.948730,4429.615234,3350.000000,4.000000,79.000000,,,,0.000000,4.000000,4.000000,4.000000,4.000000,4.000000,4.000000,4.000000,4.000000,4.000000,4.000000,4.000000,4.000000,4.000000,4.000000,100.000000,,,,,,,,,,,,,,,,,,,,,,,,,,,,,,,,,,,,,,,,,,,,,,,,,,,,,,,,,,,,,,,,,,,,,,,,,,,,,,,,,,,,,,
1676062050.976298,1676062050.976624,82.000000,0.000000,4281.025879,4263.333496,4300.128418,4301.538574,4317.307617,4289.102539,4306.666504,4337.307617,4318.589844,4299.871582,4485.897461,4498.846191,4374.230957,4411.410156,2603.000000,4.000000,79.000000,,,,0.000000,4.000000,4.000000,4.000000,4.000000,4.000000,4.000000,4.000000,4.000000,4.000000,4.000000,4.000000,4.000000,4.000000,4.000000,100.000000,,,,,,,,,,,,,,,,,,,,,,,,,,,,,,,,,,,,,,,,,,,,,,,,,,,,,,,,,,,,,,,,,,,,,,,,,,,,,,,,,,,,,,
1676062050.984106,1676062050.984432,83.000000,0.000000,4277.307617,4267.948730,4290.256348,4302.820313,4315.128418,4294.743652,4314.743652,4339.102539,4311.538574,4284.102539,4464.615234,4478.589844,4350.769043,4390.384766,2678.000000,4.000000,79.000000,,,,0.000000,4.000000,4.000000,4.000000,4.000000,4.000000,4.000000,4.000000,4.000000,4.000000,4.000000,4.000000,4.000000,4.000000,4.000000,100.000000,,,,,,,,,,,,,,,,,,,,,,,,,,,,,,,,,,,,,,,,,,,,,,,,,,,,,,,,,,,,,,,,,,,,,,,,,,,,,,,,,,,,,,
1676062050.991915,1676062050.992341,84.000000,0.000000,4292.563965,4283.333496,4288.846191,4310.000000,4309.743652,4297.692383,4310.384766,4329.487305,4305.000000,4275.128418,4456.410156,4468.461426,4358.846191,4398.974121,2955.000000,4.000000,79.000000,,,,0.000000,4.000000,4.000000,4.000000,4.000000,4.000000,4.000000,4.000000,4.000000,4.000000,4.000000,4.000000,4.000000,4.000000,4.000000,100.000000,,,,,,,,,,,,,,,,,,,,,,,,,,,,,,,,,,,,,,,,,,,,,,,,,,,,,,,,,,,,,,,,,,,,,,,,,,,,,,,,,,,,,,
1676062050.999723,1676062051.000149,85.000000,0.000000,4297.820313,4274.871582,4298.717773,4299.102539,4309.615234,4292.948730,4303.205078,4321.282227,4299.358887,4283.461426,4470.128418,4478.589844,4371.794922,4414.743652,3350.000000,4.000000,79.000000,,,,0.000000,4.000000,4.000000,4.000000,4.000000,4.000000,4.000000,4.000000,4.000000,4.000000,4.000000,4.000000,4.000000,4.000000,4.000000,100.000000,,,,,,,,,,,,,,,,,,,,,,,,,,,,,,,,,,,,,,,,,,,,,,,,,,,,,,,,,,,,,,,,,,,,,,,,,,,,,,,,,,,,,,
1676062051.007531,1676062051.008057,86.000000,0.000000,4299.102539,4274.102539,4309.615234,4303.077148,4317.563965,4284.102539,4297.307617,4312.692383,4293.846191,4293.589844,4476.282227,4488.589844,4366.025879,4418.461426,2603.000000,4.000000,79.000000,,,,0.000000,4.000000,4.000000,4.000000,4.000000,4.000000,4.000000,4.000000,4.000000,4.000000,4.000000,4.000000,4.000000,4.000000,4.000000,100.000000,,,,,,,,,,,,,,,,,,,,,,,,,,,,,,,,,,,,,,,,,,,,,,,,,,,,,,,,,,,,,,,,,,,,,,,,,,,,,,,,,,,,,,
1676062051.015340,1676062051.015866,87.000000,0.000000,4306.922852,4295.000000,4311.794922,4325.256348,4319.230957,4277.563965,4294.230957,4296.282227,4285.897461,4291.922852,4474.615234,4492.051270,4375.000000,4424.615234,2678.000000,4.000000,79.000000,,,,0.000000,4.000000,4.000000,4.000000,4.000000,4.000000,4.000000,4.000000,4.000000,4.000000,4.000000,4.000000,4.000000,4.000000,4.000000,100.000000,,,,,,,,,,,,,,,,,,,,,,,,,,,,,,,,,,,,,,,,,,,,,,,,,,,,,,,,,,,,,,,,,,,,,,,,,,,,,,,,,,,,,,
1676062051.023148,1676062051.023774,88.000000,0.000000,4314.487305,4303.333496,4319.871582,4334.358887,4319.871582,4279.615234,4296.025879,4287.051270,4277.051270,4290.769043,4483.333496,4497.948730,4392.692383,4432.179688,2955.000000,4.000000,79.000000,,,,0.000000,4.000000,4.000000,4.000000,4.000000,4.000000,4.000000,4.000000,4.000000,4.000000,4.000000,4.000000,4.000000,4.000000,4.000000,100.000000,,,,,,,,,,,,,,,,,,,,,,,,,,,,,,,,,,,,,,,,,,,,,,,,,,,,,,,,,,,,,,,,,,,,,,,,,,,,,,,,,,,,,,
1676062051.030956,1676062051.031583,89.000000,0.000000,4322.179688,4303.846191,4341.922852,4340.641113,4331.410156,4285.897461,4305.384766,4295.641113,4273.717773,4291.153809,4492.051270,4508.974121,4388.333496,4437.948730,3350.000000,4.000000,79.000000,,,,0.000000,4.000000,4.000000,4.000000,4.000000,4.000000,4.000000,4.000000,4.000000,4.000000,4.000000,4.000000,4.000000,4.000000,4.000000,100.000000,,,,,,,,,,,,,,,,,,,,,,,,,,,,,,,,,,,,,,,,,,,,,,,,,,,,,,,,,,,,,,,,,,,,,,,,,,,,,,,,,,,,,,
1676062051.038765,1676062051.039491,90.000000,0.000000,4328.461426,4315.897461,4355.512695,4354.871582,4339.615234,4287.820313,4314.743652,4305.769043,4278.333496,4288.461426,4491.153809,4522.436035,4380.641113,4446.153809,2603.000000,4.000000,79.000000,,,,0.000000,4.000000,4.000000,4.000000,4.000000,4.000000,4.000000,4.000000,4.000000,4.000000,4.000000,4.000000,4.000000,4.000000,4.000000,100.000000,,,,,,,,,,,,,,,,,,,,,,,,,,,,,,,,,,,,,,,,,,,,,,,,,,,,,,,,,,,,,,,,,,,,,,,,,,,,,,,,,,,,,,
1676062051.046573,1676062051.047299,91.000000,0.000000,4324.358887,4319.230957,4344.615234,4350.000000,4334.615234,4290.512695,4312.179688,4308.974121,4288.333496,4288.333496,4484.615234,4523.717773,4382.692383,4444.230957,2678.000000,4.000000,79.000000,,,,0.000000,4.000000,4.000000,4.000000,4.000000,4.000000,4.000000,4.000000,4.000000,4.000000,4.000000,4.000000,4.000000,4.000000,4.000000,100.000000,,,,,,,,,,,,,,,,,,,,,,,,,,,,,,,,,,,,,,,,,,,,,,,,,,,,,,,,,,,,,,,,,,,,,,,,,,,,,,,,,,,,,,
1676062051.054382,1676062051.055008,92.000000,0.000000,4311.794922,4300.128418,4320.256348,4324.871582,4325.000000,4296.410156,4299.230957,4309.358887,4300.769043,4295.384766,4479.487305,4508.461426,4385.769043,4433.077148,2955.000000,4.000000,79.000000,,,,0.000000,4.000000,4.000000,4.000000,4.000000,4.000000,4.000000,4.000000,4.000000,4.000000,4.000000,4.000000,4.000000,4.000000,4.000000,100.000000,,,,,,,,,,,,,,,,,,,,,,,,,,,,,,,,,,,,,,,,,,,,,,,,,,,,,,,,,,,,,,,,,,,,,,,,,,,,,,,,,,,,,,
1676062051.062190,1676062051.062816,93.000000,0.000000,4294.487305,4280.512695,4296.410156,4312.051270,4319.871582,4299.743652,4293.077148,4312.820313,4308.974121,4296.153809,4473.333496,4492.563965,4375.256348,4421.666504,3350.000000,4.000000,79.000000,,,,0.000000,4.000000,4.000000,4.000000,4.000000,4.000000,4.000000,4.000000,4.000000,4.000000,4.000000,4.000000,4.000000,4.000000,4.000000,100.000000,,,,,,,,,,,,,,,,,,,,,,,,,,,,,,,,,,,,,,,,,,,,,,,,,,,,,,,,,,,,,,,,,,,,,,,,,,,,,,,,,,,,,,
1676062051.069998,1676062051.070525,94.000000,0.000000,4278.461426,4277.948730,4281.922852,4305.641113,4317.051270,4301.538574,4296.153809,4319.358887,4312.307617,4286.025879,4463.846191,4480.769043,4359.871582,4408.077148,2603.000000,4.000000,79.000000,,,,0.000000,4.000000,4.000000,4.000000,4.000000,4.000000,4.000000,4.000000,4.000000,4.000000,4.000000,4.000000,4.000000,4.000000,4.000000,100.000000,,,,,,,,,,,,,,,,,1.365553,13.303906,0.236650,0.546479,0.117019,0.866993,6.803501,0.280018,0.454209,0.230108,2.191721,17.045053,0.609895,0.596765,0.178437,1.765016,8.455480,0.363080,0.541790,0.228047,1.377782,2.878215,0.440806,0.332969,0.112733,1.681396,13.732166,0.652081,0.309271,0.139771,2.117346,27.408392,1.220365,0.409846,0.118239,2.098235,21.534166,3.589552,0.658123,0.137562,0.709185,9.123666,2.799612,0.246650,0.099986,1.633287,4.535356,2.896410,0.338273,0.151582,1.962381,9.199614,3.453838,0.311117,0.399599,3.740330,17.051468,2.616117,0.610423,0.223297,1.775257,10.235926,2.096832,0.276062,0.366271,2.569138,11.317067,0.895849,0.329365,0.168928
1676062051.077807,1676062051.078433,95.000000,0.000000,4273.205078,4278.077148,4274.230957,4297.436035,4311.410156,4300.000000,4297.948730,4321.666504,4307.436035,4277.563965,4457.436035,4461.025879,4359.615234,4401.153809,2678.000000,4.000000,79.000000,,,,0.000000,4.000000,4.000000,4.000000,4.000000,4.000000,4.000000,4.000000,4.000000,4.000000,4.000000,4.000000,4.000000,4.000000,4.000000,100.000000,,,,,,,,,,,,,,,,,,,,,,,,,,,,,,,,,,,,,,,,,,,,,,,,,,,,,,,,,,,,,,,,,,,,,,,,,,,,,,,,,,,,,,
1676062051.085615,1676062051.086242,96.000000,0.000000,4277.051270,4274.615234,4272.436035,4297.692383,4304.230957,4294.358887,4295.000000,4311.794922,4298.846191,4276.794922,4453.717773,4452.051270,4362.692383,4401.282227,2955.000000,4.000000,79.000000,,,,0.000000,4.000000,4.000000,4.000000,4.000000,4.000000,4.000000,4.000000,4.000000,4.000000,4.000000,4.000000,4.000000,4.000000,4.000000,100.000000,,,,,,,,,,,,,,,,,,,,,,,,,,,,,,,,,,,,,,,,,,,,,,,,,,,,,,,,,,,,,,,,,,,,,,,,,,,,,,,,,,,,,,
1676062051.093423,1676062051.094150,97.000000,0.000000,4290.769043,4281.025879,4286.410156,4304.743652,4303.717773,4293.333496,4289.230957,4297.307617,4296.410156,4281.666504,4456.153809,4469.871582,4368.077148,4407.820313,3350.000000,4.000000,79.000000,,,,0.000000,4.000000,4.000000,4.000000,4.000000,4.000000,4.000000,4.000000,4.000000,4.000000,4.000000,4.000000,4.000000,4.000000,4.000000,100.000000,,,,,,,,,,,,,,,,,,,,,,,,,,,,,,,,,,,,,,,,,,,,,,,,,,,,,,,,,,,,,,,,,,,,,,,,,,,,,,,,,,,,,,
1676062051.101232,1676062051.101959,98.000000,0.000000,4310.641113,4296.922852,4310.384766,4317.179688,4312.948730,4293.077148,4286.153809,4291.666504,4288.077148,4282.436035,4473.205078,4492.948730,4385.000000,4427.563965,2603.000000,4.000000,79.000000,,,,0.000000,4.000000,4.000000,4.000000,4.000000,4.000000,4.000000,4.000000,4.000000,4.000000,4.000000,4.000000,4.000000,4.000000,4.000000,100.000000,,,,,,,,,,,,,,,,,,,,,,,,,,,,,,,,,,,,,,,,,,,,,,,,,,,,,,,,,,,,,,,,,,,,,,,,,,,,,,,,,,,,,,
1676062051.109040,1676062051.109867,99.000000,0.000000,4322.436035,4307.820313,4331.153809,4335.769043,4318.205078,4285.641113,4288.077148,4291.922852,4279.358887,4280.384766,4492.307617,4515.769043,4400.256348,4444.102539,2678.000000,4.000000,79.000000,,,,0.000000,4.000000,4.000000,4.000000,4.000000,4.000000,4.000000,4.000000,4.000000,4.000000,4.000000,4.000000,4.000000,4.000000,4.000000,100.000000,,,,,,,,,,,,,,,,,,,,,,,,,,,,,,,,,,,,,,,,,,,,,,,,,,,,,,,,,,,,,,,,,,,,,,,,,,,,,,,,,,,,,,
1676062051.116849,1676062051.117675,100.000000,0.000000,4332.820313,4318.461426,4350.769043,4351.794922,4317.051270,4280.000000,4293.974121,4295.128418,4286.282227,4284.615234,4501.922852,4543.974121,4405.641113,4450.256348,2955.000000,4.000000,79.000000,,,,0.000000,4.000000,4.000000,4.000000,4.000000,4.000000,4.000000,4.000000,4.000000,4.000000,4.000000,4.000000,4.000000,4.000000,4.000000,100.000000,,,,,,,,,,,,,,,,,,,,,,,,,,,,,,,,,,,,,,,,,,,,,,,,,,,,,,,,,,,,,,,,,,,,,,,,,,,,,,,,,,,,,,
1676062051.124657,1676062051.125484,101.000000,0.000000,4348.333496,4331.410156,4369.615234,4360.897461,4316.538574,4280.384766,4306.282227,4309.615234,4295.897461,4287.948730,4515.641113,4563.717773,4412.692383,4460.512695,3350.000000,4.000000,79.000000,,,,0.000000,4.000000,4.000000,4.000000,4.000000,4.000000,4.000000,4.000000,4.000000,4.000000,4.000000,4.000000,4.000000,4.000000,4.000000,100.000000,,,,,,,,,,,,,,,,,,,,,,,,,,,,,,,,,,,,,,,,,,,,,,,,,,,,,,,,,,,,,,,,,,,,,,,,,,,,,,,,,,,,,,
1676062051.132465,1676062051.133192,102.000000,0.000000,4344.358887,4329.358887,4372.563965,4362.179688,4318.589844,4286.025879,4321.794922,4331.410156,4301.153809,4283.333496,4526.666504,4564.358887,4419.102539,4465.000000,2603.000000,4.000000,79.000000,,,,0.000000,4.000000,4.000000,4.000000,4.000000,4.000000,4.000000,4.000000,4.000000,4.000000,4.000000,4.000000,4.000000,4.000000,4.000000,100.000000,,,,,,,,,,,,,,,,,,,,,,,,,,,,,,,,,,,,,,,,,,,,,,,,,,,,,,,,,,,,,,,,,,,,,,,,,,,,,,,,,,,,,,
1676062051.140274,1676062051.141001,103.000000,0.000000,4317.179688,4308.205078,4350.769043,4344.615234,4313.461426,4298.717773,4329.230957,4345.384766,4314.358887,4281.538574,4515.897461,4551.922852,4411.153809,4448.461426,2678.000000,4.000000,79.000000,,,,0.000000,4.000000,4.000000,4.000000,4.000000,4.000000,4.000000,4.000000,4.000000,4.000000,4.000000,4.000000,4.000000,4.000000,4.000000,100.000000,,,,,,,,,,,,,,,,,,,,,,,,,,,,,,,,,,,,,,,,,,,,,,,,,,,,,,,,,,,,,,,,,,,,,,,,,,,,,,,,,,,,,,
1676062051.148082,1676062051.148709,104.000000,0.000000,4296.410156,4286.025879,4323.717773,4315.897461,4301.282227,4306.666504,4325.128418,4345.512695,4324.487305,4280.897461,4493.589844,4532.307617,4392.436035,4422.692383,2955.000000,4.000000,79.000000,,,,0.000000,4.000000,4.000000,4.000000,4.000000,4.000000,4.000000,4.000000,4.000000,4.000000,4.000000,4.000000,4.000000,4.000000,4.000000,100.000000,,,,,,,,,,,,,,,,,,,,,,,,,,,,,,,,,,,,,,,,,,,,,,,,,,,,,,,,,,,,,,,,,,,,,,,,,,,,,,,,,,,,,,
1676062051.155891,1676062051.156618,105.000000,0.000000,4287.051270,4278.461426,4304.615234,4310.000000,4295.128418,4303.846191,4310.897461,4336.410156,4316.922852,4268.846191,4475.512695,4507.692383,4373.205078,4404.230957,3350.000000,4.000000,79.000000,,,,0.000000,4.000000,4.000000,4.000000,4.000000,4.000000,4.000000,4.000000,4.000000,4.000000,4.000000,4.000000,4.000000,4.000000,4.000000,100.000000,,,,,,,,,,,,,,,,,,,,,,,,,,,,,,,,,,,,,,,,,,,,,,,,,,,,,,,,,,,,,,,,,,,,,,,,,,,,,,,,,,,,,,
1676062051.163699,1676062051.164426,106.000000,0.000000,4279.230957,4280.000000,4295.000000,4309.102539,4289.358887,4303.333496,4298.461426,4328.077148,4309.871582,4257.307617,4469.358887,4490.128418,4368.205078,4402.563965,2603.000000,4.000000,79.000000,,,,0.000000,4.000000,4.000000,4.000000,4.000000,4.000000,4.000000,4.000000,4.000000,4.000000,4.000000,4.000000,4.000000,4.000000,4.000000,100.000000,,,,,,,,,,,,,,,,,,,,,,,,,,,,,,,,,,,,,,,,,,,,,,,,,,,,,,,,,,,,,,,,,,,,,,,,,,,,,,,,,,,,,,
1676062051.171507,1676062051.172334,107.000000,0.000000,4276.025879,4274.358887,4293.077148,4296.153809,4278.333496,4308.205078,4301.922852,4327.820313,4311.538574,4260.769043,4474.615234,4488.974121,4376.538574,4409.871582,2678.000000,4.000000,79.000000,,,,0.000000,4.000000,4.000000,4.000000,4.000000,4.000000,4.000000,4.000000,4.000000,4.000000,4.000000,4.000000,4.000000,4.000000,4.000000,100.000000,,,,,,,,,,,,,,,,,,,,,,,,,,,,,,,,,,,,,,,,,,,,,,,,,,,,,,,,,,,,,,,,,,,,,,,,,,,,,,,,,,,,,,
1676062051.179316,1676062051.180143,108.000000,0.000000,4278.717773,4270.128418,4292.692383,4300.128418,4275.897461,4309.230957,4308.205078,4322.436035,4306.410156,4263.333496,4473.461426,4492.051270,4377.948730,4409.871582,2955.000000,4.000000,79.000000,,,,0.000000,4.000000,4.000000,4.000000,4.000000,4.000000,4.000000,4.000000,4.000000,4.000000,4.000000,4.000000,4.000000,4.000000,4.000000,100.000000,,,,,,,,,,,,,,,,,,,,,,,,,,,,,,,,,,,,,,,,,,,,,,,,,,,,,,,,,,,,,,,,,,,,,,,,,,,,,,,,,,,,,,
1676062051.187124,1676062051.188051,109.000000,0.000000,4281.025879,4276.922852,4294.487305,4308.333496,4287.820313,4304.102539,4301.025879,4299.230957,4289.615234,4253.333496,4459.871582,4482.948730,4371.410156,4406.153809,3350.000000,4.000000,79.000000,,,,0.000000,4.000000,4.000000,4.000000,4.000000,4.000000,4.000000,4.000000,4.000000,4.000000,4.000000,4.000000,4.000000,4.000000,4.000000,100.000000,,,,,,,,,,,,,,,,,,,,,,,,,,,,,,,,,,,,,,,,,,,,,,,,,,,,,,,,,,,,,,,,,,,,,,,,,,,,,,,,,,,,,,
1676062051.194933,1676062051.195860,110.000000,0.000000,4287.436035,4286.794922,4305.256348,4306.025879,4297.436035,4297.307617,4288.205078,4276.153809,4273.461426,4245.641113,4454.743652,4475.641113,4366.666504,4408.461426,2603.000000,4.000000,79.000000,,,,0.000000,4.000000,4.000000,4.000000,4.000000,4.000000,4.000000,4.000000,4.000000,4.000000,4.000000,4.000000,4.000000,4.000000,4.000000,100.000000,,,,,,,,,,,,,,,,,1.369066,13.868782,0.282081,0.612648,0.120622,0.830046,7.409220,0.270954,0.479189,0.223244,2.153758,20.078236,0.665823,0.684613,0.161954,1.779970,9.660770,0.325622,0.619626,0.237652,1.552101,2.924029,0.379544,0.379608,0.115316,1.493252,11.229530,0.665890,0.293231,0.162499,1.921856,20.189072,0.971207,0.359242,0.117752,2.099910,17.632229,3.348526,0.573263,0.120600,0.665074,7.545955,2.626920,0.215351,0.096142,1.648576,4.200055,2.598808,0.311725,0.158070,2.065376,11.085124,3.071693,0.324218,0.395150,3.848406,21.608807,2.528383,0.638832,0.227655,1.862068,10.036694,1.934603,0.290660,0.343545,2.651975,12.465629,0.822950,0.374505,0.178425
1676062051.202741,1676062051.203768,111.000000,0.000000,4304.487305,4304.743652,4322.051270,4325.000000,4300.897461,4291.282227,4280.384766,4272.563965,4271.282227,4251.794922,4468.333496,4491.153809,4374.102539,4417.820313,2678.000000,4.000000,79.000000,,,,0.000000,4.000000,4.000000,4.000000,4.000000,4.000000,4.000000,4.000000,4.000000,4.000000,4.000000,4.000000,4.000000,4.000000,4.000000,100.000000,,,,,,,,,,,,,,,,,,,,,,,,,,,,,,,,,,,,,,,,,,,,,,,,,,,,,,,,,,,,,,,,,,,,,,,,,,,,,,,,,,,,,,
1676062051.210549,1676062051.211577,112.000000,0.000000,4326.153809,4322.436035,4339.871582,4353.461426,4307.179688,4285.512695,4284.230957,4290.128418,4280.897461,4263.589844,4486.538574,4522.948730,4393.589844,4437.948730,2955.000000,4.000000,79.000000,,,,0.000000,4.000000,4.000000,4.000000,4.000000,4.000000,4.000000,4.000000,4.000000,4.000000,4.000000,4.000000,4.000000,4.000000,4.000000,100.000000,,,,,,,,,,,,,,,,,,,,,,,,,,,,,,,,,,,,,,,,,,,,,,,,,,,,,,,,,,,,,,,,,,,,,,,,,,,,,,,,,,,,,,
1676062051.218358,1676062051.219485,113.000000,0.000000,4339.615234,4322.692383,4360.769043,4356.538574,4312.692383,4290.384766,4304.102539,4317.820313,4294.615234,4276.025879,4505.000000,4553.205078,4410.000000,4461.025879,3350.000000,4.000000,79.000000,,,,0.000000,4.000000,4.000000,4.000000,4.000000,4.000000,4.000000,4.000000,4.000000,4.000000,4.000000,4.000000,4.000000,4.000000,4.000000,100.000000,,,,,,,,,,,,,,,,,,,,,,,,,,,,,,,,,,,,,,,,,,,,,,,,,,,,,,,,,,,,,,,,,,,,,,,,,,,,,,,,,,,,,,
1676062051.226166,1676062051.227293,114.000000,0.000000,4336.025879,4321.282227,4371.538574,4354.102539,4315.384766,4300.256348,4323.717773,4337.692383,4308.589844,4291.666504,4521.794922,4565.000000,4415.000000,4466.922852,2603.000000,4.000000,79.000000,,,,0.000000,4.000000,4.000000,4.000000,4.000000,4.000000,4.000000,4.000000,4.000000,4.000000,4.000000,4.000000,4.000000,4.000000,4.000000,100.000000,,,,,,,,,,,,,,,,,,,,,,,,,,,,,,,,,,,,,,,,,,,,,,,,,,,,,,,,,,,,,,,,,,,,,,,,,,,,,,,,,,,,,,
1676062051.233975,1676062051.235102,115.000000,0.000000,4321.025879,4322.948730,4358.205078,4354.358887,4311.922852,4300.256348,4327.563965,4346.794922,4323.077148,4297.692383,4519.102539,4551.922852,4411.282227,4453.589844,2678.000000,4.000000,79.000000,,,,0.000000,4.000000,4.000000,4.000000,4.000000,4.000000,4.000000,4.000000,4.000000,4.000000,4.000000,4.000000,4.000000,4.000000,4.000000,100.000000,,,,,,,,,,,,,,,,,,,,,,,,,,,,,,,,,,,,,,,,,,,,,,,,,,,,,,,,,,,,,,,,,,,,,,,,,,,,,,,,,,,,,,
1676062051.241783,1676062051.242910,116.000000,0.000000,4307.563965,4309.871582,4334.358887,4338.205078,4304.230957,4301.410156,4322.948730,4350.897461,4329.615234,4287.692383,4501.538574,4527.307617,4401.153809,4435.256348,2955.000000,4.000000,79.000000,,,,0.000000,4.000000,4.000000,4.000000,4.000000,4.000000,4.000000,4.000000,4.000000,4.000000,4.000000,4.000000,4.000000,4.000000,4.000000,100.000000,,,,,,,,,,,,,,,,,,,,,,,,,,,,,,,,,,,,,,,,,,,,,,,,,,,,,,,,,,,,,,,,,,,,,,,,,,,,,,,,,,,,,,
1676062051.249591,1676062051.250619,117.000000,0.000000,4296.794922,4285.897461,4316.025879,4321.666504,4295.128418,4311.025879,4316.922852,4348.717773,4323.205078,4281.794922,4491.666504,4510.897461,4387.820313,4423.974121,3350.000000,4.000000,79.000000,,,,0.000000,4.000000,4.000000,4.000000,4.000000,4.000000,4.000000,4.000000,4.000000,4.000000,4.000000,4.000000,4.000000,4.000000,4.000000,100.000000,,,,,,,,,,,,,,,,,,,,,,,,,,,,,,,,,,,,,,,,,,,,,,,,,,,,,,,,,,,,,,,,,,,,,,,,,,,,,,,,,,,,,,
1676062051.257400,1676062051.258427,118.000000,0.000000,4287.948730,4277.179688,4309.871582,4313.461426,4288.589844,4309.487305,4311.410156,4338.461426,4316.794922,4278.717773,4485.128418,4505.128418,4379.743652,4421.794922,2603.000000,4.000000,79.000000,,,,0.000000,4.000000,4.000000,4.000000,4.000000,4.000000,4.000000,4.000000,4.000000,4.000000,4.000000,4.000000,4.000000,4.000000,4.000000,100.000000,,,,,,,,,,,,,,,,,,,,,,,,,,,,,,,,,,,,,,,,,,,,,,,,,,,,,,,,,,,,,,,,,,,,,,,,,,,,,,,,,,,,,,
1676062051.265208,1676062051.266136,119.000000,0.000000,4290.512695,4290.769043,4314.615234,4310.384766,4287.563965,4302.948730,4311.794922,4324.871582,4314.615234,4267.436035,4474.615234,4502.051270,4379.358887,4423.974121,2678.000000,4.000000,79.000000,,,,0.000000,4.000000,4.000000,4.000000,4.000000,4.000000,4.000000,4.000000,4.000000,4.000000,4.000000,4.000000,4.000000,4.000000,4.000000,100.000000,,,,,,,,,,,,,,,,,,,,,,,,,,,,,,,,,,,,,,,,,,,,,,,,,,,,,,,,,,,,,,,,,,,,,,,,,,,,,,,,,,,,,,
1676062051.273017,1676062051.273944,120.000000,0.000000,4301.410156,4302.179688,4318.846191,4319.358887,4291.410156,4304.743652,4312.307617,4313.333496,4303.205078,4261.282227,4472.692383,4495.897461,4379.743652,4427.948730,2955.000000,4.000000,79.000000,,,,0.000000,4.000000,4.000000,4.000000,4.000000,4.000000,4.000000,4.000000,4.000000,4.000000,4.000000,4.000000,4.000000,4.000000,4.000000,100.000000,,,,,,,,,,,,,,,,,,,,,,,,,,,,,,,,,,,,,,,,,,,,,,,,,,,,,,,,,,,,,,,,,,,,,,,,,,,,,,,,,,,,,,
1676062051.280825,1676062051.281653,121.000000,0.000000,4304.743652,4299.102539,4316.794922,4326.282227,4293.461426,4301.666504,4302.820313,4302.692383,4286.025879,4264.102539,4473.589844,4488.846191,4379.230957,4428.333496,3350.000000,4.000000,79.000000,,,,0.000000,4.000000,4.000000,4.000000,4.000000,4.000000,4.000000,4.000000,4.000000,4.000000,4.000000,4.000000,4.000000,4.000000,4.000000,100.000000,,,,,,,,,,,,,,,,,,,,,,,,,,,,,,,,,,,,,,,,,,,,,,,,,,,,,,,,,,,,,,,,,,,,,,,,,,,,,,,,,,,,,,
1676062051.288633,1676062051.289461,122.000000,0.000000,4307.820313,4301.538574,4318.333496,4324.615234,4294.102539,4295.641113,4293.589844,4292.563965,4278.077148,4263.846191,4471.025879,4490.000000,4380.641113,4428.846191,2603.000000,4.000000,79.000000,,,,0.000000,4.000000,4.000000,4.000000,4.000000,4.000000,4.000000,4.000000,4.000000,4.000000,4.000000,4.000000,4.000000,4.000000,4.000000,100.000000,,,,,,,,,,,,,,,,,,,,,,,,,,,,,,,,,,,,,,,,,,,,,,,,,,,,,,,,,,,,,,,,,,,,,,,,,,,,,,,,,,,,,,
1676062051.296442,1676062051.297170,123.000000,0.000000,4318.846191,4312.051270,4328.846191,4326.794922,4295.512695,4290.641113,4292.563965,4288.846191,4277.820313,4264.102539,4478.589844,4502.436035,4382.307617,4438.974121,2678.000000,4.000000,79.000000,,,,0.000000,4.000000,4.000000,4.000000,4.000000,4.000000,4.000000,4.000000,4.000000,4.000000,4.000000,4.000000,4.000000,4.000000,4.000000,100.000000,,,,,,,,,,,,,,,,,,,,,,,,,,,,,,,,,,,,,,,,,,,,,,,,,,,,,,,,,,,,,,,,,,,,,,,,,,,,,,,,,,,,,,
1676062051.304250,1676062051.304978,124.000000,0.000000,4329.871582,4314.358887,4338.974121,4334.743652,4295.000000,4282.307617,4294.743652,4297.051270,4282.563965,4271.153809,4490.256348,4520.769043,4387.820313,4453.974121,2955.000000,4.000000,79.000000,,,,0.000000,4.000000,4.000000,4.000000,4.000000,4.000000,4.000000,4.000000,4.000000,4.000000,4.000000,4.000000,4.000000,4.000000,4.000000,100.000000,,,,,,,,,,,,,,,,,,,,,,,,,,,,,,,,,,,,,,,,,,,,,,,,,,,,,,,,,,,,,,,,,,,,,,,,,,,,,,,,,,,,,,
1676062051.312058,1676062051.312687,125.000000,0.000000,4337.563965,4317.563965,4345.384766,4343.846191,4295.641113,4284.871582,4305.512695,4316.153809,4298.717773,4283.461426,4497.948730,4538.846191,4397.179688,4464.871582,3350.000000,4.000000,79.000000,,,,0.000000,4.000000,4.000000,4.000000,4.000000,4.000000,4.000000,4.000000,4.000000,4.000000,4.000000,4.000000,4.000000,4.000000,4.000000,100.000000,,,,,,,,,,,,,,,,,,,,,,,,,,,,,,,,,,,,,,,,,,,,,,,,,,,,,,,,,,,,,,,,,,,,,,,,,,,,,,,,,,,,,,
1676062051.319867,1676062051.320495,126.000000,0.000000,4339.487305,4320.128418,4352.179688,4346.282227,4298.077148,4295.512695,4318.717773,4334.871582,4314.743652,4293.717773,4506.153809,4545.384766,4397.436035,4464.487305,2603.000000,4.000000,79.000000,,,,0.000000,4.000000,4.000000,4.000000,4.000000,4.000000,4.000000,4.000000,4.000000,4.000000,4.000000,4.000000,4.000000,4.000000,4.000000,100.000000,,,,,,,,,,,,,,,,,1.545851,15.567914,0.399080,0.678183,0.132397,0.805787,8.702601,0.259050,0.502073,0.228501,2.154878,23.968979,0.889932,0.794438,0.151048,1.714969,11.415420,0.321420,0.704351,0.244153,1.746833,3.215120,0.325864,0.398961,0.117741,1.306709,9.007797,0.747297,0.268081,0.184170,1.701174,14.540308,1.099217,0.330684,0.119353,1.968797,15.176568,3.006931,0.506864,0.111229,0.666709,6.369863,2.187280,0.218275,0.092263,1.773991,4.442453,2.196048,0.299515,0.163896,2.278333,13.898257,2.757899,0.364327,0.368761,4.013045,27.095976,2.752038,0.714953,0.241697,2.010619,10.884277,1.793347,0.331924,0.323493,2.830807,14.661558,0.883510,0.428180,0.199246
1676062051.327675,1676062051.328204,127.000000,0.000000,4328.205078,4310.128418,4347.948730,4338.461426,4295.384766,4296.794922,4316.666504,4342.692383,4319.230957,4288.974121,4506.153809,4532.563965,4387.563965,4451.666504,79.000000,4.000000,79.000000,,,,0.000000,4.000000,4.000000,4.000000,4.000000,4.000000,4.000000,4.000000,4.000000,4.000000,4.000000,4.000000,4.000000,4.000000,4.000000,100.000000,,,,,,,,,,,,,,,,,,,,,,,,,,,,,,,,,,,,,,,,,,,,,,,,,,,,,,,,,,,,,,,,,,,,,,,,,,,,,,,,,,,,,,
1676062051.335484,1676062051.336012,0.000000,0.000000,4316.538574,4305.769043,4327.307617,4332.179688,4293.589844,4297.563965,4307.051270,4333.589844,4315.769043,4280.384766,4485.512695,4508.974121,4374.102539,4435.256348,2414.000000,4.000000,79.000000,,,,0.000000,4.000000,4.000000,4.000000,4.000000,4.000000,4.000000,4.000000,4.000000,4.000000,4.000000,4.000000,4.000000,4.000000,4.000000,100.000000,,,,,,,,,,,,,,,,,,,,,,,,,,,,,,,,,,,,,,,,,,,,,,,,,,,,,,,,,,,,,,,,,,,,,,,,,,,,,,,,,,,,,,
1676062051.343292,1676062051.343721,1.000000,0.000000,4311.666504,4303.461426,4305.384766,4328.846191,4296.538574,4307.179688,4304.743652,4317.563965,4305.384766,4279.615234,4463.205078,4489.487305,4361.410156,4426.282227,2403.000000,4.000000,79.000000,,,,0.000000,4.000000,4.000000,4.000000,4.000000,4.000000,4.000000,4.000000,4.000000,4.000000,4.000000,4.000000,4.000000,4.000000,4.000000,100.000000,,,,,,,,,,,,,,,,,,,,,,,,,,,,,,,,,,,,,,,,,,,,,,,,,,,,,,,,,,,,,,,,,,,,,,,,,,,,,,,,,,,,,,
1676062051.351100,1676062051.351529,2.000000,0.000000,4304.358887,4292.436035,4296.794922,4320.897461,4297.820313,4313.589844,4308.717773,4312.051270,4295.641113,4273.077148,4459.358887,4478.205078,4353.077148,4420.641113,2281.000000,4.000000,79.000000,,,,0.000000,4.000000,4.000000,4.000000,4.000000,4.000000,4.000000,4.000000,4.000000,4.000000,4.000000,4.000000,4.000000,4.000000,4.000000,100.000000,,,,,,,,,,,,,,,,,,,,,,,,,,,,,,,,,,,,,,,,,,,,,,,,,,,,,,,,,,,,,,,,,,,,,,,,,,,,,,,,,,,,,,
1676062051.358909,1676062051.359238,3.000000,0.000000,4304.871582,4300.641113,4300.384766,4322.179688,4297.436035,4313.717773,4314.615234,4307.820313,4294.230957,4261.153809,4459.743652,4472.948730,4354.871582,4413.846191,2186.000000,4.000000,79.000000,,,,0.000000,4.000000,4.000000,4.000000,4.000000,4.000000,4.000000,4.000000,4.000000,4.000000,4.000000,4.000000,4.000000,4.000000,4.000000,100.000000,,,,,,,,,,,,,,,,,,,,,,,,,,,,,,,,,,,,,,,,,,,,,,,,,,,,,,,,,,,,,,,,,,,,,,,,,,,,,,,,,,,,,,
1676062051.366717,1676062051.367146,4.000000,0.000000,4318.333496,4321.025879,4303.333496,4331.025879,4298.589844,4310.256348,4306.153809,4289.615234,4284.102539,4259.743652,4455.384766,4471.153809,4360.256348,4414.871582,2261.000000,4.000000,79.000000,,,,0.000000,4.000000,4.000000,4.000000,4.000000,4.000000,4.000000,4.000000,4.000000,4.000000,4.000000,4.000000,4.000000,4.000000,4.000000,100.000000,,,,,,,,,,,,,,,,,,,,,,,,,,,,,,,,,,,,,,,,,,,,,,,,,,,,,,,,,,,,,,,,,,,,,,,,,,,,,,,,,,,,,,
1676062051.374525,1676062051.374955,5.000000,0.000000,4324.615234,4316.666504,4301.410156,4330.512695,4297.307617,4296.410156,4284.102539,4271.410156,4265.000000,4260.641113,4450.769043,4469.230957,4353.589844,4421.794922,2358.000000,4.000000,79.000000,,,,0.000000,4.000000,4.000000,4.000000,4.000000,4.000000,4.000000,4.000000,4.000000,4.000000,4.000000,4.000000,4.000000,4.000000,4.000000,100.000000,,,,,,,,,,,,,,,,,,,,,,,,,,,,,,,,,,,,,,,,,,,,,,,,,,,,,,,,,,,,,,,,,,,,,,,,,,,,,,,,,,,,,,
1676062051.382334,1676062051.382863,6.000000,0.000000,4324.743652,4310.512695,4306.025879,4331.538574,4294.743652,4283.333496,4275.128418,4274.487305,4266.025879,4261.025879,4457.051270,4473.589844,4350.000000,4427.307617,2186.000000,4.000000,79.000000,,,,0.000000,4.000000,4.000000,4.000000,4.000000,4.000000,4.000000,4.000000,4.000000,4.000000,4.000000,4.000000,4.000000,4.000000,4.000000,100.000000,,,,,,,,,,,,,,,,,,,,,,,,,,,,,,,,,,,,,,,,,,,,,,,,,,,,,,,,,,,,,,,,,,,,,,,,,,,,,,,,,,,,,,
1676062051.390142,1676062051.390671,7.000000,0.000000,4328.589844,4323.077148,4313.974121,4336.922852,4294.871582,4277.820313,4282.948730,4291.410156,4287.948730,4273.077148,4473.461426,4486.282227,4363.205078,4430.128418,2209.000000,4.000000,79.000000,,,,0.000000,4.000000,4.000000,4.000000,4.000000,4.000000,4.000000,4.000000,4.000000,4.000000,4.000000,4.000000,4.000000,4.000000,4.000000,100.000000,,,,,,,,,,,,,,,,,,,,,,,,,,,,,,,,,,,,,,,,,,,,,,,,,,,,,,,,,,,,,,,,,,,,,,,,,,,,,,,,,,,,,,
1676062051.397951,1676062051.398580,8.000000,0.000000,4324.230957,4322.179688,4311.922852,4330.641113,4293.846191,4279.487305,4289.102539,4298.846191,4295.128418,4281.410156,4478.077148,4492.563965,4367.307617,4428.717773,2025.000000,4.000000,79.000000,,,,0.000000,4.000000,4.000000,4.000000,4.000000,4.000000,4.000000,4.000000,4.000000,4.000000,4.000000,4.000000,4.000000,4.000000,4.000000,100.000000,,,,,,,,,,,,,,,,,,,,,,,,,,,,,,,,,,,,,,,,,,,,,,,,,,,,,,,,,,,,,,,,,,,,,,,,,,,,,,,,,,,,,,
1676062051.405759,1676062051.406388,9.000000,0.000000,4312.948730,4308.461426,4310.641113,4323.461426,4292.307617,4288.205078,4295.128418,4306.153809,4292.179688,4281.538574,4472.820313,4496.794922,4357.307617,4426.410156,2164.000000,4.000000,79.000000,,,,0.000000,4.000000,4.000000,4.000000,4.000000,4.000000,4.000000,4.000000,4.000000,4.000000,4.000000,4.000000,4.000000,4.000000,4.000000,100.000000,,,,,,,,,,,,,,,,,,,,,,,,,,,,,,,,,,,,,,,,,,,,,,,,,,,,,,,,,,,,,,,,,,,,,,,,,,,,,,,,,,,,,,
1676062051.413567,1676062051.414296,10.000000,0.000000,4311.282227,4308.333496,4319.615234,4325.641113,4295.641113,4294.358887,4307.948730,4326.922852,4306.538574,4286.666504,4475.769043,4509.102539,4356.025879,4427.820313,2603.000000,4.000000,79.000000,,,,0.000000,4.000000,4.000000,4.000000,4.000000,4.000000,4.000000,4.000000,4.000000,4.000000,4.000000,4.000000,4.000000,4.000000,4.000000,100.000000,,,,,,,,,,,,,,,,,,,,,,,,,,,,,,,,,,,,,,,,,,,,,,,,,,,,,,,,,,,,,,,,,,,,,,,,,,,,,,,,,,,,,,
1676062051.421376,1676062051.422105,11.000000,0.000000,4313.077148,4312.563965,4322.436035,4326.410156,4293.589844,4298.717773,4318.846191,4343.846191,4323.974121,4289.487305,4480.897461,4517.307617,4357.179688,4428.846191,2682.000000,4.000000,79.000000,,,,0.000000,4.000000,4.000000,4.000000,4.000000,4.000000,4.000000,4.000000,4.000000,4.000000,4.000000,4.000000,4.000000,4.000000,4.000000,100.000000,,,,,,,,,,,,,,,,,,,,,,,,,,,,,,,,,,,,,,,,,,,,,,,,,,,,,,,,,,,,,,,,,,,,,,,,,,,,,,,,,,,,,,
1676062051.429184,1676062051.429813,12.000000,0.000000,4312.179688,4307.436035,4315.641113,4325.128418,4288.333496,4307.948730,4324.102539,4340.641113,4319.743652,4284.743652,4473.333496,4511.282227,4348.717773,4421.153809,2960.000000,4.000000,79.000000,,,,0.000000,4.000000,4.000000,4.000000,4.000000,4.000000,4.000000,4.000000,4.000000,4.000000,4.000000,4.000000,4.000000,4.000000,4.000000,100.000000,,,,,,,,,,,,,,,,,,,,,,,,,,,,,,,,,,,,,,,,,,,,,,,,,,,,,,,,,,,,,,,,,,,,,,,,,,,,,,,,,,,,,,
1676062051.436993,1676062051.437722,13.000000,0.000000,4311.666504,4302.179688,4309.871582,4326.922852,4295.256348,4315.512695,4324.358887,4330.897461,4306.153809,4277.307617,4459.487305,4494.871582,4338.846191,4410.512695,3355.000000,4.000000,79.000000,,,,0.000000,4.000000,4.000000,4.000000,4.000000,4.000000,4.000000,4.000000,4.000000,4.000000,4.000000,4.000000,4.000000,4.000000,4.000000,100.000000,,,,,,,,,,,,,,,,,,,,,,,,,,,,,,,,,,,,,,,,,,,,,,,,,,,,,,,,,,,,,,,,,,,,,,,,,,,,,,,,,,,,,,
1676062051.444801,1676062051.445530,14.000000,0.000000,4308.461426,4304.230957,4308.205078,4328.589844,4303.974121,4314.358887,4316.666504,4319.487305,4297.436035,4267.436035,4450.128418,4477.563965,4327.563965,4403.461426,2603.000000,4.000000,79.000000,,,,0.000000,4.000000,4.000000,4.000000,4.000000,4.000000,4.000000,4.000000,4.000000,4.000000,4.000000,4.000000,4.000000,4.000000,4.000000,100.000000,1.000000,41.666668,4.000000,1.000000,1.000000,4.000000,4.000000,4.000000,3.000000,4.000000,4.000000,4.000000,4.000000,3.000000,4.000000,4.000000,1.892437,18.712236,0.588942,0.751400,0.150111,0.842403,10.919951,0.282877,0.527818,0.248271,2.248891,28.707148,1.373096,0.928878,0.143900,1.614678,13.916875,0.416005,0.782299,0.245198,1.903014,3.941458,0.308004,0.386960,0.118886,1.128756,7.465434,0.831515,0.241712,0.199087,1.502810,11.253568,1.415604,0.351417,0.121639,1.804844,14.811957,2.606928,0.476500,0.109131,0.687996,6.036268,1.574296,0.254574,0.089960,1.937485,5.201927,1.741321,0.308119,0.167499,2.577098,17.104479,2.527577,0.427779,0.324621,4.194899,32.545300,3.235109,0.836700,0.256370,2.231620,12.783403,1.662046,0.394003,0.309500,3.082001,17.773481,1.065953,0.489843,0.223926
1676062051.452609,1676062051.453339,15.000000,0.000000,4308.717773,4312.563965,4309.743652,4330.641113,4302.051270,4306.922852,4305.641113,4299.358887,4285.128418,4259.487305,4443.974121,4472.820313,4318.589844,4399.743652,2682.000000,4.000000,79.000000,,,,0.000000,4.000000,4.000000,4.000000,4.000000,4.000000,4.000000,4.000000,4.000000,4.000000,4.000000,4.000000,4.000000,4.000000,4.000000,100.000000,,,,,,,,,,,,,,,,,,,,,,,,,,,,,,,,,,,,,,,,,,,,,,,,,,,,,,,,,,,,,,,,,,,,,,,,,,,,,,,,,,,,,,
1676062051.460418,1676062051.461047,16.000000,0.000000,4324.743652,4324.487305,4313.077148,4335.128418,4301.025879,4299.871582,4293.717773,4276.794922,4269.102539,4259.230957,4436.025879,4476.153809,4319.743652,4403.717773,0.000000,4.000000,79.000000,,,,0.000000,4.000000,4.000000,4.000000,4.000000,4.000000,4.000000,4.000000,4.000000,4.000000,4.000000,4.000000,4.000000,4.000000,4.000000,100.000000,,,,,,,,,,,,,,,,,,,,,,,,,,,,,,,,,,,,,,,,,,,,,,,,,,,,,,,,,,,,,,,,,,,,,,,,,,,,,,,,,,,,,,
1676062051.468226,1676062051.468856,17.000000,0.000000,4339.487305,4327.179688,4312.436035,4339.871582,4306.410156,4292.307617,4280.512695,4261.922852,4257.563965,4258.461426,4429.102539,4472.820313,4319.358887,4410.512695,0.000000,4.000000,79.000000,,,,0.000000,4.000000,4.000000,4.000000,4.000000,4.000000,4.000000,4.000000,4.000000,4.000000,4.000000,4.000000,4.000000,4.000000,4.000000,100.000000,,,,,,,,,,,,,,,,,,,,,,,,,,,,,,,,,,,,,,,,,,,,,,,,,,,,,,,,,,,,,,,,,,,,,,,,,,,,,,,,,,,,,,
1676062051.476035,1676062051.476564,18.000000,0.000000,4337.051270,4325.000000,4310.384766,4341.666504,4310.641113,4285.512695,4277.820313,4266.666504,4258.717773,4259.615234,4441.153809,4475.256348,4319.487305,4412.948730,0.000000,4.000000,79.000000,,,,0.000000,4.000000,4.000000,4.000000,4.000000,4.000000,4.000000,4.000000,4.000000,4.000000,4.000000,4.000000,4.000000,4.000000,4.000000,100.000000,,,,,,,,,,,,,,,,,,,,,,,,,,,,,,,,,,,,,,,,,,,,,,,,,,,,,,,,,,,,,,,,,,,,,,,,,,,,,,,,,,,,,,
1676062051.483843,1676062051.484373,19.000000,0.000000,4335.769043,4330.897461,4315.769043,4341.153809,4310.128418,4280.769043,4289.358887,4290.641113,4276.666504,4273.333496,4461.282227,4491.922852,4328.333496,4411.538574,0.000000,4.000000,79.000000,,,,0.000000,4.000000,4.000000,4.000000,4.000000,4.000000,4.000000,4.000000,4.000000,4.000000,4.000000,4.000000,4.000000,4.000000,4.000000,100.000000,,,,,,,,,,,,,,,,,,,,,,,,,,,,,,,,,,,,,,,,,,,,,,,,,,,,,,,,,,,,,,,,,,,,,,,,,,,,,,,,,,,,,,
1676062051.491651,1676062051.492081,20.000000,0.000000,4338.333496,4336.282227,4319.871582,4340.897461,4302.948730,4279.743652,4297.179688,4312.307617,4293.205078,4284.358887,4460.000000,4497.820313,4324.230957,4403.077148,0.000000,4.000000,79.000000,,,,0.000000,4.000000,4.000000,4.000000,4.000000,4.000000,4.000000,4.000000,4.000000,4.000000,4.000000,4.000000,4.000000,4.000000,4.000000,100.000000,,,,,,,,,,,,,,,,,,,,,,,,,,,,,,,,,,,,,,,,,,,,,,,,,,,,,,,,,,,,,,,,,,,,,,,,,,,,,,,,,,,,,,
1676062051.499460,1676062051.499890,21.000000,0.000000,4326.538574,4327.948730,4312.436035,4340.128418,4294.743652,4281.538574,4296.538574,4322.692383,4299.487305,4282.179688,4444.871582,4485.128418,4304.358887,4388.974121,0.000000,4.000000,79.000000,,,,0.000000,4.000000,4.000000,4.000000,4.000000,4.000000,4.000000,4.000000,4.000000,4.000000,4.000000,4.000000,4.000000,4.000000,4.000000,100.000000,,,,,,,,,,,,,,,,,,,,,,,,,,,,,,,,,,,,,,,,,,,,,,,,,,,,,,,,,,,,,,,,,,,,,,,,,,,,,,,,,,,,,,
1676062051.507268,1676062051.507598,22.000000,0.000000,4309.487305,4315.641113,4303.333496,4331.922852,4293.461426,4285.641113,4297.563965,4331.025879,4307.692383,4277.948730,4435.256348,4474.230957,4292.179688,4378.974121,0.000000,4.000000,79.000000,,,,0.000000,4.000000,4.000000,4.000000,4.000000,4.000000,4.000000,4.000000,4.000000,4.000000,4.000000,4.000000,4.000000,4.000000,4.000000,100.000000,,,,,,,,,,,,,,,,,,,,,,,,,,,,,,,,,,,,,,,,,,,,,,,,,,,,,,,,,,,,,,,,,,,,,,,,,,,,,,,,,,,,,,
1676062051.515077,1676062051.515407,23.000000,0.000000,4306.794922,4321.410156,4305.128418,4326.282227,4295.000000,4292.051270,4302.436035,4332.307617,4311.794922,4279.102539,4429.615234,4474.871582,4287.948730,4379.102539,0.000000,4.000000,79.000000,,,,0.000000,4.000000,4.000000,4.000000,4.000000,4.000000,4.000000,4.000000,4.000000,4.000000,4.000000,4.000000,4.000000,4.000000,4.000000,100.000000,,,,,,,,,,,,,,,,,,,,,,,,,,,,,,,,,,,,,,,,,,,,,,,,,,,,,,,,,,,,,,,,,,,,,,,,,,,,,,,,,,,,,,
1676062051.522885,1676062051.523115,24.000000,0.000000,4315.256348,4335.128418,4311.410156,4333.589844,4299.615234,4298.846191,4309.615234,4324.615234,4306.282227,4280.897461,4429.102539,4477.179688,4285.128418,4382.051270,0.000000,4.000000,79.000000,,,,0.000000,4.000000,4.000000,4.000000,4.000000,4.000000,4.000000,4.000000,4.000000,4.000000,4.000000,4.000000,4.000000,4.000000,4.000000,100.000000,,,,,,,,,,,,,,,,,,,,,,,,,,,,,,,,,,,,,,,,,,,,,,,,,,,,,,,,,,,,,,,,,,,,,,,,,,,,,,,,,,,,,,
1676062051.530693,1676062051.531024,25.000000,0.000000,4312.692383,4331.666504,4302.820313,4336.153809,4306.538574,4305.000000,4310.256348,4313.205078,4294.102539,4268.589844,4419.230957,4462.436035,4273.974121,4372.820313,0.000000,4.000000,79.000000,,,,0.000000,4.000000,4.000000,4.000000,4.000000,4.000000,4.000000,4.000000,4.000000,4.000000,4.000000,4.000000,4.000000,4.000000,4.000000,100.000000,,,,,,,,,,,,,,,,,,,,,,,,,,,,,,,,,,,,,,,,,,,,,,,,,,,,,,,,,,,,,,,,,,,,,,,,,,,,,,,,,,,,,,
1676062051.538502,1676062051.538832,26.000000,0.000000,4297.179688,4321.282227,4284.102539,4327.563965,4308.717773,4304.358887,4297.820313,4291.794922,4274.871582,4249.358887,4394.358887,4433.205078,4253.717773,4354.487305,0.000000,4.000000,79.000000,,,,0.000000,4.000000,4.000000,4.000000,4.000000,4.000000,4.000000,4.000000,4.000000,4.000000,4.000000,4.000000,4.000000,4.000000,4.000000,100.000000,,,,,,,,,,,,,,,,,,,,,,,,,,,,,,,,,,,,,,,,,,,,,,,,,,,,,,,,,,,,,,,,,,,,,,,,,,,,,,,,,,,,,,
1676062051.546310,1676062051.546740,27.000000,0.000000,4298.333496,4332.692383,4283.077148,4325.000000,4308.717773,4294.743652,4284.358887,4267.820313,4258.717773,4241.666504,4383.205078,4418.461426,4249.487305,4348.717773,0.000000,4.000000,79.000000,,,,0.000000,4.000000,4.000000,4.000000,4.000000,4.000000,4.000000,4.000000,4.000000,4.000000,4.000000,4.000000,4.000000,4.000000,4.000000,100.000000,,,,,,,,,,,,,,,,,,,,,,,,,,,,,,,,,,,,,,,,,,,,,,,,,,,,,,,,,,,,,,,,,,,,,,,,,,,,,,,,,,,,,,
1676062051.554119,1676062051.554549,28.000000,0.000000,4323.717773,4353.974121,4305.384766,4339.871582,4316.794922,4288.333496,4278.846191,4254.615234,4251.538574,4245.000000,4393.589844,4429.102539,4263.205078,4360.641113,0.000000,4.000000,79.000000,,,,0.000000,4.000000,4.000000,4.000000,4.000000,4.000000,4.000000,4.000000,4.000000,4.000000,4.000000,4.000000,4.000000,4.000000,4.000000,100.000000,,,,,,,,,,,,,,,,,,,,,,,,,,,,,,,,,,,,,,,,,,,,,,,,,,,,,,,,,,,,,,,,,,,,,,,,,,,,,,,,,,,,,,
1676062051.561927,1676062051.562457,29.000000,0.000000,4339.230957,4355.128418,4321.794922,4356.794922,4325.128418,4290.512695,4276.538574,4253.846191,4246.666504,4252.692383,4402.948730,4445.256348,4267.820313,4370.000000,0.000000,4.000000,79.000000,,,,0.000000,4.000000,4.000000,4.000000,4.000000,4.000000,4.000000,4.000000,4.000000,4.000000,4.000000,4.000000,4.000000,4.000000,4.000000,100.000000,,,,,,,,,,,,,,,,,,,,,,,,,,,,,,,,,,,,,,,,,,,,,,,,,,,,,,,,,,,,,,,,,,,,,,,,,,,,,,,,,,,,,,
1676062051.569735,1676062051.570266,30.000000,0.000000,4333.717773,4350.512695,4319.102539,4362.692383,4323.205078,4290.512695,4280.769043,4266.538574,4251.410156,4261.025879,4412.948730,4458.589844,4270.769043,4374.102539,0.000000,4.000000,79.000000,,,,0.000000,4.000000,4.000000,4.000000,4.000000,4.000000,4.000000,4.000000,4.000000,4.000000,4.000000,4.000000,4.000000,4.000000,4.000000,100.000000,,,,,,,,,,,,,,,,,2.354080,22.962553,0.822829,0.832269,0.168613,0.972227,13.912776,0.375387,0.558667,0.281272,2.475671,34.013416,2.075050,1.077350,0.138390,1.546384,17.092484,0.632427,0.839364,0.241579,2.002303,5.078486,0.339468,0.349603,0.117578,0.994022,6.579848,0.883287,0.222838,0.202514,1.385203,9.926262,1.715880,0.439455,0.121934,1.739880,16.450867,2.195055,0.483721,0.112434,0.741965,6.748869,0.980436,0.310697,0.090660,2.112297,6.274593,1.320585,0.337089,0.167690,2.974319,20.209909,2.339956,0.509102,0.274570,4.420562,37.427784,3.789497,0.993932,0.260989,2.546726,15.287271,1.518363,0.469905,0.300964,3.391092,21.297478,1.291082,0.567820,0.243592
1676062051.577544,1676062051.578174,31.000000,0.000000,4327.051270,4354.102539,4314.487305,4353.333496,4315.384766,4286.025879,4292.692383,4292.307617,4273.846191,4266.922852,4430.000000,4474.615234,4281.410156,4380.512695,0.000000,4.000000,79.000000,,,,0.000000,4.000000,4.000000,4.000000,4.000000,4.000000,4.000000,4.000000,4.000000,4.000000,4.000000,4.000000,4.000000,4.000000,4.000000,100.000000,,,,,,,,,,,,,,,,,,,,,,,,,,,,,,,,,,,,,,,,,,,,,,,,,,,,,,,,,,,,,,,,,,,,,,,,,,,,,,,,,,,,,,
1676062051.585352,1676062051.585982,32.000000,0.000000,4320.512695,4343.846191,4311.794922,4333.077148,4303.974121,4284.230957,4300.384766,4315.256348,4293.333496,4267.307617,4433.461426,4482.948730,4275.512695,4375.897461,0.000000,4.000000,79.000000,,,,0.000000,4.000000,4.000000,4.000000,4.000000,4.000000,4.000000,4.000000,4.000000,4.000000,4.000000,4.000000,4.000000,4.000000,4.000000,100.000000,,,,,,,,,,,,,,,,,,,,,,,,,,,,,,,,,,,,,,,,,,,,,,,,,,,,,,,,,,,,,,,,,,,,,,,,,,,,,,,,,,,,,,
1676062051.593160,1676062051.593891,33.000000,0.000000,4310.256348,4326.153809,4303.461426,4326.025879,4295.897461,4286.410156,4298.461426,4325.128418,4299.102539,4268.461426,4418.846191,4479.487305,4261.538574,4362.436035,0.000000,4.000000,79.000000,,,,0.000000,4.000000,4.000000,4.000000,4.000000,4.000000,4.000000,4.000000,4.000000,4.000000,4.000000,4.000000,4.000000,4.000000,4.000000,100.000000,,,,,,,,,,,,,,,,,,,,,,,,,,,,,,,,,,,,,,,,,,,,,,,,,,,,,,,,,,,,,,,,,,,,,,,,,,,,,,,,,,,,,,
1676062051.600969,1676062051.601699,34.000000,0.000000,4300.000000,4327.948730,4295.384766,4334.871582,4300.897461,4291.025879,4296.282227,4331.153809,4300.897461,4271.410156,4411.282227,4471.922852,4257.692383,4353.974121,0.000000,4.000000,79.000000,,,,0.000000,4.000000,4.000000,4.000000,4.000000,4.000000,4.000000,4.000000,4.000000,4.000000,4.000000,4.000000,4.000000,4.000000,4.000000,100.000000,,,,,,,,,,,,,,,,,,,,,,,,,,,,,,,,,,,,,,,,,,,,,,,,,,,,,,,,,,,,,,,,,,,,,,,,,,,,,,,,,,,,,,
1676062051.608777,1676062051.609608,35.000000,0.000000,4293.077148,4333.846191,4295.641113,4335.384766,4311.538574,4295.000000,4301.538574,4331.282227,4301.282227,4268.589844,4413.205078,4463.205078,4253.205078,4348.333496,0.000000,4.000000,79.000000,,,,0.000000,4.000000,4.000000,4.000000,4.000000,4.000000,4.000000,4.000000,4.000000,4.000000,4.000000,4.000000,4.000000,4.000000,4.000000,100.000000,,,,,,,,,,,,,,,,,,,,,,,,,,,,,,,,,,,,,,,,,,,,,,,,,,,,,,,,,,,,,,,,,,,,,,,,,,,,,,,,,,,,,,
1676062051.616586,1676062051.617416,36.000000,0.000000,4292.436035,4325.512695,4295.769043,4325.897461,4310.256348,4296.794922,4302.820313,4318.846191,4300.256348,4266.410156,4405.256348,4454.487305,4247.692383,4338.846191,0.000000,4.000000,79.000000,,,,0.000000,4.000000,4.000000,4.000000,4.000000,4.000000,4.000000,4.000000,4.000000,4.000000,4.000000,4.000000,4.000000,4.000000,4.000000,100.000000,,,,,,,,,,,,,,,,,,,,,,,,,,,,,,,,,,,,,,,,,,,,,,,,,,,,,,,,,,,,,,,,,,,,,,,,,,,,,,,,,,,,,,
1676062051.624394,1676062051.625125,37.000000,0.000000,4293.846191,4324.615234,4288.077148,4326.025879,4302.948730,4293.205078,4292.179688,4299.102539,4290.000000,4264.487305,4391.922852,4441.538574,4248.205078,4335.256348,0.000000,4.000000,79.000000,,,,0.000000,4.000000,4.000000,4.000000,4.000000,4.000000,4.000000,4.000000,4.000000,4.000000,4.000000,4.000000,4.000000,4.000000,4.000000,100.000000,,,,,,,,,,,,,,,,,,,,,,,,,,,,,,,,,,,,,,,,,,,,,,,,,,,,,,,,,,,,,,,,,,,,,,,,,,,,,,,,,,,,,,
1676062051.632202,1676062051.632933,38.000000,0.000000,4294.358887,4338.077148,4288.333496,4337.692383,4308.974121,4286.282227,4282.051270,4282.179688,4273.205078,4255.897461,4391.794922,4427.307617,4248.461426,4341.282227,0.000000,4.000000,79.000000,,,,0.000000,4.000000,4.000000,4.000000,4.000000,4.000000,4.000000,4.000000,4.000000,4.000000,4.000000,4.000000,4.000000,4.000000,4.000000,100.000000,,,,,,,,,,,,,,,,,,,,,,,,,,,,,,,,,,,,,,,,,,,,,,,,,,,,,,,,,,,,,,,,,,,,,,,,,,,,,,,,,,,,,,
1676062051.640011,1676062051.640641,39.000000,0.000000,4304.102539,4348.974121,4301.025879,4348.077148,4319.871582,4280.769043,4273.589844,4269.615234,4258.717773,4246.153809,4395.000000,4430.641113,4247.307617,4343.846191,0.000000,4.000000,79.000000,,,,0.000000,4.000000,4.000000,4.000000,4.000000,4.000000,4.000000,4.000000,4.000000,4.000000,4.000000,4.000000,4.000000,4.000000,4.000000,100.000000,,,,,,,,,,,,,,,,,,,,,,,,,,,,,,,,,,,,,,,,,,,,,,,,,,,,,,,,,,,,,,,,,,,,,,,,,,,,,,,,,,,,,,
1676062051.647819,1676062051.648550,40.000000,0.000000,4323.461426,4358.846191,4311.153809,4351.794922,4327.692383,4277.563965,4262.948730,4251.922852,4247.948730,4246.538574,4389.615234,4440.000000,4249.743652,4343.846191,0.000000,4.000000,79.000000,1,1,1,0.000000,4.000000,4.000000,4.000000,4.000000,4.000000,4.000000,4.000000,4.000000,4.000000,4.000000,4.000000,4.000000,4.000000,4.000000,100.000000,,,,,,,,,,,,,,,,,,,,,,,,,,,,,,,,,,,,,,,,,,,,,,,,,,,,,,,,,,,,,,,,,,,,,,,,,,,,,,,,,,,,,,
1676062051.655627,1676062051.656358,41.000000,0.000000,4329.487305,4363.717773,4313.077148,4351.410156,4331.538574,4277.948730,4263.077148,4239.743652,4240.384766,4249.743652,4386.538574,4432.820313,4250.512695,4342.820313,0.000000,4.000000,79.000000,,,,0.000000,4.000000,4.000000,4.000000,4.000000,4.000000,4.000000,4.000000,4.000000,4.000000,4.000000,4.000000,4.000000,4.000000,4.000000,100.000000,,,,,,,,,,,,,,,,,,,,,,,,,,,,,,,,,,,,,,,,,,,,,,,,,,,,,,,,,,,,,,,,,,,,,,,,,,,,,,,,,,,,,,
1676062051.663436,1676062051.664267,42.000000,0.000000,4317.820313,4355.000000,4309.230957,4355.128418,4331.922852,4283.205078,4281.153809,4249.615234,4242.307617,4245.897461,4393.333496,4428.333496,4248.461426,4341.794922,0.000000,4.000000,79.000000,,,,0.000000,4.000000,4.000000,4.000000,4.000000,4.000000,4.000000,4.000000,4.000000,4.000000,4.000000,4.000000,4.000000,4.000000,4.000000,100.000000,,,,,,,,,,,,,,,,,,,,,,,,,,,,,,,,,,,,,,,,,,,,,,,,,,,,,,,,,,,,,,,,,,,,,,,,,,,,,,,,,,,,,,
1676062051.671244,1676062051.672075,43.000000,0.000000,4303.077148,4345.128418,4301.922852,4352.051270,4325.641113,4292.307617,4300.384766,4273.589844,4255.769043,4247.307617,4396.922852,4443.077148,4246.922852,4342.948730,0.000000,4.000000,79.000000,,,,0.000000,4.000000,4.000000,4.000000,4.000000,4.000000,4.000000,4.000000,4.000000,4.000000,4.000000,4.000000,4.000000,4.000000,4.000000,100.000000,,,,,,,,,,,,,,,,,,,,,,,,,,,,,,,,,,,,,,,,,,,,,,,,,,,,,,,,,,,,,,,,,,,,,,,,,,,,,,,,,,,,,,
1676062051.679053,1676062051.679983,44.000000,0.000000,4296.025879,4339.102539,4294.487305,4337.948730,4316.282227,4299.102539,4310.769043,4295.897461,4274.230957,4258.461426,4397.948730,4457.692383,4248.333496,4342.436035,0.000000,4.000000,79.000000,,,,0.000000,4.000000,4.000000,4.000000,4.000000,4.000000,4.000000,4.000000,4.000000,4.000000,4.000000,4.000000,4.000000,4.000000,4.000000,100.000000,,,,,,,,,,,,,,,,,,,,,,,,,,,,,,,,,,,,,,,,,,,,,,,,,,,,,,,,,,,,,,,,,,,,,,,,,,,,,,,,,,,,,,
1676062051.686861,1676062051.687792,45.000000,0.000000,4295.128418,4334.358887,4292.436035,4333.205078,4315.256348,4302.563965,4312.948730,4314.487305,4289.871582,4267.307617,4404.871582,4461.666504,4250.897461,4342.563965,0.000000,4.000000,79.000000,,,,0.000000,4.000000,4.000000,4.000000,4.000000,4.000000,4.000000,4.000000,4.000000,4.000000,4.000000,4.000000,4.000000,4.000000,4.000000,100.000000,,,,,,,,,,,,,,,,,,,,,,,,,,,,,,,,,,,,,,,,,,,,,,,,,,,,,,,,,,,,,,,,,,,,,,,,,,,,,,,,,,,,,,
1676062051.694669,1676062051.695600,46.000000,0.000000,4294.743652,4336.153809,4294.358887,4340.769043,4318.461426,4305.256348,4309.230957,4327.179688,4296.282227,4267.307617,4407.179688,4461.794922,4249.743652,4341.922852,0.000000,4.000000,79.000000,,,,0.000000,4.000000,4.000000,4.000000,4.000000,4.000000,4.000000,4.000000,4.000000,4.000000,4.000000,4.000000,4.000000,4.000000,4.000000,100.000000,,,,,,,,,,,,,,,,,2.830164,27.313723,1.044321,0.910397,0.182468,1.186700,17.066648,0.542177,0.590255,0.321839,2.803101,39.092728,2.804479,1.215998,0.134002,1.546169,20.427464,0.932403,0.864208,0.235433,2.039218,6.361347,0.410894,0.299393,0.113083,0.913173,6.069030,0.887442,0.213416,0.192875,1.345780,9.563001,1.836676,0.590855,0.119208,1.827958,19.507631,1.757133,0.518637,0.120345,0.844872,8.448699,0.579822,0.367300,0.096381,2.286580,7.391957,1.011492,0.377860,0.163775,3.414574,22.770367,2.126397,0.602086,0.232335,4.676847,41.474064,4.133467,1.170952,0.250189,2.893960,17.629025,1.343889,0.551417,0.294696,3.667012,24.436741,1.455562,0.669547,0.250428
1676062051.702478,1676062051.703309,47.000000,0.000000,4293.333496,4341.282227,4293.333496,4340.897461,4317.563965,4306.025879,4306.282227,4328.077148,4299.358887,4265.897461,4399.230957,4456.025879,4248.333496,4334.871582,0.000000,4.000000,79.000000,,,,0.000000,4.000000,4.000000,4.000000,4.000000,4.000000,4.000000,4.000000,4.000000,4.000000,4.000000,4.000000,4.000000,4.000000,4.000000,100.000000,,,,,,,,,,,,,,,,,,,,,,,,,,,,,,,,,,,,,,,,,,,,,,,,,,,,,,,,,,,,,,,,,,,,,,,,,,,,,,,,,,,,,,
1676062051.710286,1676062051.711117,48.000000,0.000000,4292.179688,4337.820313,4286.410156,4334.871582,4311.410156,4302.820313,4302.436035,4319.615234,4297.051270,4263.846191,4389.871582,4441.794922,4245.128418,4326.025879,0.000000,4.000000,79.000000,,,,0.000000,4.000000,4.000000,4.000000,4.000000,4.000000,4.000000,4.000000,4.000000,4.000000,4.000000,4.000000,4.000000,4.000000,4.000000,100.000000,,,,,,,,,,,,,,,,,,,,,,,,,,,,,,,,,,,,,,,,,,,,,,,,,,,,,,,,,,,,,,,,,,,,,,,,,,,,,,,,,,,,,,
1676062051.718094,1676062051.718826,49.000000,0.000000,4290.256348,4332.179688,4277.179688,4332.051270,4307.436035,4298.974121,4291.666504,4302.307617,4280.256348,4255.641113,4382.563965,4425.256348,4235.384766,4322.692383,0.000000,4.000000,79.000000,,,,0.000000,4.000000,4.000000,4.000000,4.000000,4.000000,4.000000,4.000000,4.000000,4.000000,4.000000,4.000000,4.000000,4.000000,4.000000,100.000000,,,,,,,,,,,,,,,,,,,,,,,,,,,,,,,,,,,,,,,,,,,,,,,,,,,,,,,,,,,,,,,,,,,,,,,,,,,,,,,,,,,,,,
1676062051.725903,1676062051.726634,50.000000,0.000000,4287.948730,4338.205078,4276.666504,4336.410156,4312.820313,4294.102539,4278.461426,4280.512695,4263.717773,4245.897461,4376.025879,4419.230957,4231.025879,4322.692383,0.000000,4.000000,79.000000,,,,0.000000,4.000000,4.000000,4.000000,4.000000,4.000000,4.000000,4.000000,4.000000,4.000000,4.000000,4.000000,4.000000,4.000000,4.000000,100.000000,,,,,,,,,,,,,,,,,,,,,,,,,,,,,,,,,,,,,,,,,,,,,,,,,,,,,,,,,,,,,,,,,,,,,,,,,,,,,,,,,,,,,,
1676062051.733711,1676062051.734343,51.000000,0.000000,4293.589844,4351.794922,4288.974121,4346.922852,4323.461426,4284.358887,4268.077148,4266.153809,4258.589844,4244.615234,4379.743652,4424.743652,4240.641113,4327.436035,0.000000,4.000000,79.000000,,,,0.000000,4.000000,4.000000,4.000000,4.000000,4.000000,4.000000,4.000000,4.000000,4.000000,4.000000,4.000000,4.000000,4.000000,4.000000,100.000000,,,,,,,,,,,,,,,,,,,,,,,,,,,,,,,,,,,,,,,,,,,,,,,,,,,,,,,,,,,,,,,,,,,,,,,,,,,,,,,,,,,,,,
1676062051.741520,1676062051.742251,52.000000,0.000000,4308.846191,4364.230957,4303.077148,4355.641113,4330.000000,4278.333496,4262.563965,4257.051270,4252.307617,4254.871582,4389.743652,4431.025879,4252.179688,4336.538574,0.000000,4.000000,79.000000,,,,0.000000,4.000000,4.000000,4.000000,4.000000,4.000000,4.000000,4.000000,4.000000,4.000000,4.000000,4.000000,4.000000,4.000000,4.000000,100.000000,,,,,,,,,,,,,,,,,,,,,,,,,,,,,,,,,,,,,,,,,,,,,,,,,,,,,,,,,,,,,,,,,,,,,,,,,,,,,,,,,,,,,,
1676062051.749328,1676062051.750060,53.000000,0.000000,4320.897461,4366.794922,4308.333496,4359.102539,4328.077148,4281.922852,4263.333496,4248.846191,4244.615234,4263.846191,4399.102539,4442.179688,4259.743652,4346.538574,0.000000,4.000000,79.000000,,,,0.000000,4.000000,4.000000,4.000000,4.000000,4.000000,4.000000,4.000000,4.000000,4.000000,4.000000,4.000000,4.000000,4.000000,4.000000,100.000000,,,,,,,,,,,,,,,,,,,,,,,,,,,,,,,,,,,,,,,,,,,,,,,,,,,,,,,,,,,,,,,,,,,,,,,,,,,,,,,,,,,,,,
1676062051.757136,1676062051.757968,54.000000,0.000000,4322.179688,4361.410156,4308.333496,4356.794922,4325.641113,4282.563965,4269.871582,4253.846191,4250.128418,4264.743652,4411.025879,4458.846191,4265.897461,4357.820313,0.000000,4.000000,79.000000,,,,0.000000,4.000000,4.000000,4.000000,4.000000,4.000000,4.000000,4.000000,4.000000,4.000000,4.000000,4.000000,4.000000,4.000000,4.000000,100.000000,,,,,,,,,,,,,,,,,,,,,,,,,,,,,,,,,,,,,,,,,,,,,,,,,,,,,,,,,,,,,,,,,,,,,,,,,,,,,,,,,,,,,,
1676062051.764945,1676062051.765776,55.000000,0.000000,4319.230957,4358.717773,4307.820313,4352.948730,4327.179688,4279.102539,4282.179688,4271.666504,4263.077148,4270.128418,4419.102539,4463.846191,4264.615234,4357.563965,0.000000,4.000000,79.000000,,,,0.000000,4.000000,4.000000,4.000000,4.000000,4.000000,4.000000,4.000000,4.000000,4.000000,4.000000,4.000000,4.000000,4.000000,4.000000,100.000000,,,,,,,,,,,,,,,,,,,,,,,,,,,,,,,,,,,,,,,,,,,,,,,,,,,,,,,,,,,,,,,,,,,,,,,,,,,,,,,,,,,,,,
1676062051.772753,1676062051.773685,56.000000,0.000000,4320.384766,4360.256348,4309.871582,4353.974121,4324.487305,4287.948730,4298.589844,4287.820313,4276.025879,4280.897461,4417.051270,4462.948730,4265.897461,4346.410156,0.000000,4.000000,79.000000,,,,0.000000,4.000000,4.000000,4.000000,4.000000,4.000000,4.000000,4.000000,4.000000,4.000000,4.000000,4.000000,4.000000,4.000000,4.000000,100.000000,,,,,,,,,,,,,,,,,,,,,,,,,,,,,,,,,,,,,,,,,,,,,,,,,,,,,,,,,,,,,,,,,,,,,,,,,,,,,,,,,,,,,,
1676062051.780562,1676062051.781493,57.000000,0.000000,4321.410156,4355.128418,4315.641113,4353.461426,4319.487305,4303.461426,4306.794922,4302.179688,4287.948730,4283.077148,4411.538574,4474.358887,4267.692383,4343.589844,0.000000,4.000000,79.000000,,,,0.000000,4.000000,4.000000,4.000000,4.000000,4.000000,4.000000,4.000000,4.000000,4.000000,4.000000,4.000000,4.000000,4.000000,4.000000,100.000000,,,,,,,,,,,,,,,,,,,,,,,,,,,,,,,,,,,,,,,,,,,,,,,,,,,,,,,,,,,,,,,,,,,,,,,,,,,,,,,,,,,,,,
1676062051.788370,1676062051.789402,58.000000,0.000000,4315.512695,4348.077148,4318.846191,4350.512695,4321.410156,4308.974121,4301.153809,4315.256348,4295.769043,4279.615234,4411.153809,4478.846191,4256.282227,4346.538574,0.000000,4.000000,79.000000,,,,0.000000,4.000000,4.000000,4.000000,4.000000,4.000000,4.000000,4.000000,4.000000,4.000000,4.000000,4.000000,4.000000,4.000000,4.000000,100.000000,,,,,,,,,,,,,,,,,,,,,,,,,,,,,,,,,,,,,,,,,,,,,,,,,,,,,,,,,,,,,,,,,,,,,,,,,,,,,,,,,,,,,,
1676062051.796178,1676062051.797210,59.000000,0.000000,4309.102539,4350.512695,4308.717773,4350.769043,4325.128418,4308.846191,4297.948730,4318.589844,4295.641113,4274.615234,4408.205078,4465.384766,4245.256348,4338.974121,0.000000,4.000000,79.000000,,,,0.000000,4.000000,4.000000,4.000000,4.000000,4.000000,4.000000,4.000000,4.000000,4.000000,4.000000,4.000000,4.000000,4.000000,4.000000,100.000000,,,,,,,,,,,,,,,,,,,,,,,,,,,,,,,,,,,,,,,,,,,,,,,,,,,,,,,,,,,,,,,,,,,,,,,,,,,,,,,,,,,,,,
1676062051.803987,1676062051.804919,60.000000,0.000000,4309.358887,4350.000000,4296.794922,4348.461426,4325.128418,4312.948730,4297.820313,4308.717773,4288.205078,4264.743652,4392.307617,4451.410156,4241.153809,4326.666504,0.000000,4.000000,79.000000,,,,0.000000,4.000000,4.000000,4.000000,4.000000,4.000000,4.000000,4.000000,4.000000,4.000000,4.000000,4.000000,4.000000,4.000000,4.000000,100.000000,,,,,,,,,,,,,,,,,,,,,,,,,,,,,,,,,,,,,,,,,,,,,,,,,,,,,,,,,,,,,,,,,,,,,,,,,,,,,,,,,,,,,,
1676062051.811795,1676062051.812727,61.000000,0.000000,4310.128418,4340.512695,4292.051270,4338.974121,4322.948730,4311.538574,4287.820313,4295.000000,4278.717773,4259.487305,4373.205078,4438.205078,4234.487305,4322.307617,0.000000,4.000000,79.000000,,,,0.000000,4.000000,4.000000,4.000000,4.000000,4.000000,4.000000,4.000000,4.000000,4.000000,4.000000,4.000000,4.000000,4.000000,4.000000,100.000000,,,,,,,,,,,,,,,,,,,,,,,,,,,,,,,,,,,,,,,,,,,,,,,,,,,,,,,,,,,,,,,,,,,,,,,,,,,,,,,,,,,,,,
1676062051.819604,1676062051.820436,62.000000,0.000000,4308.717773,4343.205078,4291.538574,4341.410156,4323.974121,4300.256348,4272.820313,4280.384766,4268.846191,4261.153809,4368.974121,4423.205078,4233.461426,4323.717773,0.000000,4.000000,79.000000,,,,0.000000,4.000000,4.000000,4.000000,4.000000,4.000000,4.000000,4.000000,4.000000,4.000000,4.000000,4.000000,4.000000,4.000000,4.000000,100.000000,,,,,,,,,,,,,,,,,3.207940,30.478331,1.189075,0.963423,0.189143,1.415762,19.505873,0.738033,0.609431,0.361295,3.140104,42.705746,3.298309,1.312682,0.132510,1.591933,23.053217,1.220768,0.850896,0.229533,1.964783,7.381519,0.487058,0.250173,0.105605,0.875605,5.714394,0.842655,0.212364,0.172189,1.381319,9.361731,1.690329,0.781212,0.114094,2.021147,23.327618,1.302024,0.566480,0.132454,0.976587,10.932801,0.452519,0.407346,0.108456,2.426545,8.325178,0.851909,0.416541,0.156187,3.803772,24.402296,1.869190,0.698841,0.207643,4.940570,44.363785,4.085503,1.344612,0.227652,3.168067,19.040266,1.150113,0.627147,0.287279,3.802269,26.357294,1.489320,0.791398,0.240565
1676062051.827412,1676062051.828244,63.000000,0.000000,4315.897461,4361.794922,4297.436035,4356.410156,4331.666504,4293.974121,4264.102539,4267.692383,4261.538574,4261.025879,4383.717773,4425.769043,4243.717773,4328.077148,0.000000,4.000000,79.000000,,,,0.000000,4.000000,4.000000,4.000000,4.000000,4.000000,4.000000,4.000000,4.000000,4.000000,4.000000,4.000000,4.000000,4.000000,4.000000,100.000000,,,,,,,,,,,,,,,,,,,,,,,,,,,,,,,,,,,,,,,,,,,,,,,,,,,,,,,,,,,,,,,,,,,,,,,,,,,,,,,,,,,,,,
1676062051.835220,1676062051.835953,64.000000,0.000000,4328.077148,4370.256348,4305.641113,4361.025879,4336.282227,4295.897461,4263.717773,4261.666504,4261.153809,4261.410156,4395.512695,4441.666504,4255.128418,4332.563965,2414.000000,4.000000,79.000000,,,,0.000000,4.000000,4.000000,4.000000,4.000000,4.000000,4.000000,4.000000,4.000000,4.000000,4.000000,4.000000,4.000000,4.000000,4.000000,100.000000,,,,,,,,,,,,,,,,,,,,,,,,,,,,,,,,,,,,,,,,,,,,,,,,,,,,,,,,,,,,,,,,,,,,,,,,,,,,,,,,,,,,,,
1676062051.843029,1676062051.843761,65.000000,0.000000,4328.077148,4361.538574,4303.846191,4356.794922,4330.384766,4296.666504,4269.743652,4262.051270,4264.102539,4267.051270,4397.307617,4452.948730,4263.717773,4338.461426,2403.000000,4.000000,79.000000,,,,0.000000,4.000000,4.000000,4.000000,4.000000,4.000000,4.000000,4.000000,4.000000,4.000000,4.000000,4.000000,4.000000,4.000000,4.000000,100.000000,,,,,,,,,,,,,,,,,,,,,,,,,,,,,,,,,,,,,,,,,,,,,,,,,,,,,,,,,,,,,,,,,,,,,,,,,,,,,,,,,,,,,,
1676062051.850837,1676062051.851470,66.000000,0.000000,4320.897461,4356.666504,4297.820313,4356.538574,4324.358887,4293.974121,4278.205078,4268.589844,4263.717773,4269.743652,4403.077148,4458.461426,4265.256348,4341.666504,2274.000000,4.000000,79.000000,,,,0.000000,4.000000,4.000000,4.000000,4.000000,4.000000,4.000000,4.000000,4.000000,4.000000,4.000000,4.000000,4.000000,4.000000,4.000000,100.000000,,,,,,,,,,,,,,,,,,,,,,,,,,,,,,,,,,,,,,,,,,,,,,,,,,,,,,,,,,,,,,,,,,,,,,,,,,,,,,,,,,,,,,
1676062051.858646,1676062051.859278,67.000000,0.000000,4320.769043,4359.871582,4303.461426,4359.615234,4327.563965,4297.692383,4291.538574,4286.153809,4271.153809,4267.563965,4416.025879,4462.820313,4263.205078,4343.589844,2181.000000,4.000000,79.000000,,,,0.000000,4.000000,4.000000,4.000000,4.000000,4.000000,4.000000,4.000000,4.000000,4.000000,4.000000,4.000000,4.000000,4.000000,4.000000,100.000000,,,,,,,,,,,,,,,,,,,,,,,,,,,,,,,,,,,,,,,,,,,,,,,,,,,,,,,,,,,,,,,,,,,,,,,,,,,,,,,,,,,,,,
1676062051.866454,1676062051.866987,68.000000,0.000000,4320.769043,4361.025879,4309.230957,4358.589844,4328.974121,4310.897461,4310.128418,4302.820313,4287.436035,4267.820313,4419.487305,4467.436035,4267.179688,4343.205078,2257.000000,4.000000,79.000000,,,,0.000000,4.000000,4.000000,4.000000,4.000000,4.000000,4.000000,4.000000,4.000000,4.000000,4.000000,4.000000,4.000000,4.000000,4.000000,100.000000,,,,,,,,,,,,,,,,,,,,,,,,,,,,,,,,,,,,,,,,,,,,,,,,,,,,,,,,,,,,,,,,,,,,,,,,,,,,,,,,,,,,,,
1676062051.874262,1676062051.874795,69.000000,0.000000,4314.230957,4352.820313,4302.179688,4351.922852,4320.897461,4319.230957,4313.461426,4300.641113,4289.358887,4263.974121,4405.256348,4464.102539,4260.897461,4331.025879,2358.000000,4.000000,79.000000,,,,0.000000,4.000000,4.000000,4.000000,4.000000,4.000000,4.000000,4.000000,4.000000,4.000000,4.000000,4.000000,4.000000,4.000000,4.000000,100.000000,,,,,,,,,,,,,,,,,,,,,,,,,,,,,,,,,,,,,,,,,,,,,,,,,,,,,,,,,,,,,,,,,,,,,,,,,,,,,,,,,,,,,,
1676062051.882071,1676062051.882504,70.000000,0.000000,4308.077148,4344.871582,4293.333496,4350.128418,4315.256348,4315.384766,4301.538574,4295.128418,4279.871582,4249.230957,4391.666504,4452.692383,4248.461426,4319.102539,2186.000000,4.000000,79.000000,,,,0.000000,4.000000,4.000000,4.000000,4.000000,4.000000,4.000000,4.000000,4.000000,4.000000,4.000000,4.000000,4.000000,4.000000,4.000000,100.000000,,,,,,,,,,,,,,,,,,,,,,,,,,,,,,,,,,,,,,,,,,,,,,,,,,,,,,,,,,,,,,,,,,,,,,,,,,,,,,,,,,,,,,
1676062051.889879,1676062051.890312,71.000000,0.000000,4301.794922,4343.077148,4285.641113,4347.436035,4311.025879,4309.102539,4295.512695,4295.769043,4275.641113,4232.948730,4387.179688,4438.717773,4243.205078,4313.333496,2209.000000,4.000000,79.000000,,,,0.000000,4.000000,4.000000,4.000000,4.000000,4.000000,4.000000,4.000000,4.000000,4.000000,4.000000,4.000000,4.000000,4.000000,4.000000,100.000000,,,,,,,,,,,,,,,,,,,,,,,,,,,,,,,,,,,,,,,,,,,,,,,,,,,,,,,,,,,,,,,,,,,,,,,,,,,,,,,,,,,,,,
1676062051.897687,1676062051.898021,72.000000,0.000000,4294.102539,4339.871582,4277.563965,4332.948730,4299.102539,4303.974121,4286.794922,4289.230957,4273.205078,4221.153809,4379.102539,4427.179688,4238.205078,4305.769043,2027.000000,4.000000,79.000000,,,,0.000000,4.000000,4.000000,4.000000,4.000000,4.000000,4.000000,4.000000,4.000000,4.000000,4.000000,4.000000,4.000000,4.000000,4.000000,100.000000,,,,,,,,,,,,,,,,,,,,,,,,,,,,,,,,,,,,,,,,,,,,,,,,,,,,,,,,,,,,,,,,,,,,,,,,,,,,,,,,,,,,,,
1676062051.905496,1676062051.905829,73.000000,0.000000,4296.282227,4335.128418,4274.358887,4326.153809,4286.282227,4296.538574,4268.333496,4279.487305,4266.153809,4214.743652,4367.436035,4419.358887,4236.025879,4300.897461,2165.000000,4.000000,79.000000,,,,0.000000,4.000000,4.000000,4.000000,4.000000,4.000000,4.000000,4.000000,4.000000,4.000000,4.000000,4.000000,4.000000,4.000000,4.000000,100.000000,,,,,,,,,,,,,,,,,,,,,,,,,,,,,,,,,,,,,,,,,,,,,,,,,,,,,,,,,,,,,,,,,,,,,,,,,,,,,,,,,,,,,,
1676062051.913304,1676062051.913538,74.000000,0.000000,4309.487305,4342.563965,4282.051270,4338.589844,4288.974121,4291.922852,4258.589844,4271.410156,4263.717773,4219.230957,4371.025879,4423.974121,4244.615234,4310.256348,2608.000000,4.000000,79.000000,,,,0.000000,4.000000,4.000000,4.000000,4.000000,4.000000,4.000000,4.000000,4.000000,4.000000,4.000000,4.000000,4.000000,4.000000,4.000000,100.000000,,,,,,,,,,,,,,,,,,,,,,,,,,,,,,,,,,,,,,,,,,,,,,,,,,,,,,,,,,,,,,,,,,,,,,,,,,,,,,,,,,,,,,
1676062051.921113,1676062051.921446,75.000000,0.000000,4315.641113,4354.743652,4295.256348,4342.436035,4295.897461,4290.384766,4258.846191,4266.538574,4263.974121,4228.461426,4387.820313,4436.282227,4254.102539,4324.615234,2687.000000,4.000000,79.000000,,,,0.000000,4.000000,4.000000,4.000000,4.000000,4.000000,4.000000,4.000000,4.000000,4.000000,4.000000,4.000000,4.000000,4.000000,4.000000,100.000000,,,,,,,,,,,,,,,,,,,,,,,,,,,,,,,,,,,,,,,,,,,,,,,,,,,,,,,,,,,,,,,,,,,,,,,,,,,,,,,,,,,,,,
1676062051.928921,1676062051.929254,76.000000,0.000000,4315.769043,4354.871582,4303.461426,4339.743652,4292.692383,4288.717773,4259.743652,4268.461426,4261.922852,4229.743652,4396.666504,4444.102539,4260.512695,4332.307617,2969.000000,4.000000,79.000000,,,,0.000000,4.000000,4.000000,4.000000,4.000000,4.000000,4.000000,4.000000,4.000000,4.000000,4.000000,4.000000,4.000000,4.000000,4.000000,100.000000,,,,,,,,,,,,,,,,,,,,,,,,,,,,,,,,,,,,,,,,,,,,,,,,,,,,,,,,,,,,,,,,,,,,,,,,,,,,,,,,,,,,,,
1676062051.936729,1676062051.937163,77.000000,0.000000,4325.000000,4352.820313,4305.769043,4353.461426,4292.948730,4289.743652,4269.871582,4278.077148,4269.871582,4232.820313,4404.358887,4453.974121,4266.025879,4336.922852,3363.000000,4.000000,79.000000,,,,0.000000,4.000000,4.000000,4.000000,4.000000,4.000000,4.000000,4.000000,4.000000,4.000000,4.000000,4.000000,4.000000,4.000000,4.000000,100.000000,,,,,,,,,,,,,,,,,,,,,,,,,,,,,,,,,,,,,,,,,,,,,,,,,,,,,,,,,,,,,,,,,,,,,,,,,,,,,,,,,,,,,,
1676062051.944538,1676062051.944971,78.000000,0.000000,4328.077148,4350.256348,4303.333496,4358.205078,4296.666504,4297.436035,4288.974121,4287.051270,4279.871582,4243.077148,4412.307617,4461.282227,4264.743652,4336.538574,2608.000000,4.000000,79.000000,,,,0.000000,4.000000,4.000000,4.000000,4.000000,4.000000,4.000000,4.000000,4.000000,4.000000,4.000000,4.000000,4.000000,4.000000,4.000000,100.000000,1.000000,41.666668,4.000000,1.000000,1.000000,4.000000,4.000000,4.000000,4.000000,4.000000,4.000000,4.000000,4.000000,3.000000,4.000000,4.000000,3.374471,31.453865,1.220994,0.975018,0.190027,1.580661,20.486797,0.894129,0.606318,0.391158,3.347256,43.612473,3.361527,1.343848,0.135704,1.621661,24.107613,1.389767,0.803528,0.225946,1.793309,7.803143,0.525740,0.215790,0.096687,0.850007,5.508742,0.784102,0.214901,0.145315,1.430082,9.130891,1.367425,0.967593,0.107698,2.213383,27.552193,0.901866,0.613898,0.147438,1.086288,13.940947,0.519892,0.421618,0.126102,2.480820,8.932881,0.793300,0.439196,0.146350,4.042331,24.838415,1.557984,0.789057,0.202204,5.153729,45.645405,3.606692,1.488628,0.203991,3.330262,19.059074,0.943303,0.684504,0.274833,3.732499,26.487299,1.352664,0.915402,0.215237
1676062051.952346,1676062051.952879,79.000000,0.000000,4315.769043,4346.410156,4301.025879,4347.563965,4299.487305,4307.436035,4304.358887,4294.743652,4279.743652,4249.102539,4413.717773,4461.538574,4267.692383,4335.512695,2687.000000,4.000000,79.000000,,,,0.000000,4.000000,4.000000,4.000000,4.000000,4.000000,4.000000,4.000000,4.000000,4.000000,4.000000,4.000000,4.000000,4.000000,4.000000,100.000000,,,,,,,,,,,,,,,,,,,,,,,,,,,,,,,,,,,,,,,,,,,,,,,,,,,,,,,,,,,,,,,,,,,,,,,,,,,,,,,,,,,,,,
1676062051.960154,1676062051.960688,80.000000,0.000000,4309.615234,4347.179688,4302.436035,4347.051270,4305.128418,4313.974121,4314.102539,4302.179688,4281.538574,4249.230957,4413.461426,4461.025879,4275.512695,4335.512695,2969.000000,4.000000,79.000000,,,,0.000000,4.000000,4.000000,4.000000,4.000000,4.000000,4.000000,4.000000,4.000000,4.000000,4.000000,4.000000,4.000000,4.000000,4.000000,100.000000,,,,,,,,,,,,,,,,,,,,,,,,,,,,,,,,,,,,,,,,,,,,,,,,,,,,,,,,,,,,,,,,,,,,,,,,,,,,,,,,,,,,,,
1676062051.967963,1676062051.968596,81.000000,0.000000,4315.128418,4345.897461,4303.461426,4349.743652,4305.769043,4316.922852,4318.077148,4304.102539,4286.538574,4248.846191,4413.974121,4462.051270,4269.230957,4331.538574,3363.000000,4.000000,79.000000,,,,0.000000,4.000000,4.000000,4.000000,4.000000,4.000000,4.000000,4.000000,4.000000,4.000000,4.000000,4.000000,4.000000,4.000000,4.000000,100.000000,,,,,,,,,,,,,,,,,,,,,,,,,,,,,,,,,,,,,,,,,,,,,,,,,,,,,,,,,,,,,,,,,,,,,,,,,,,,,,,,,,,,,,
1676062051.975771,1676062051.976405,82.000000,0.000000,4307.820313,4333.846191,4292.563965,4338.589844,4297.820313,4319.358887,4312.179688,4308.717773,4288.589844,4249.487305,4411.282227,4459.358887,4260.256348,4326.410156,2608.000000,4.000000,79.000000,,,,0.000000,4.000000,4.000000,4.000000,4.000000,4.000000,4.000000,4.000000,4.000000,4.000000,4.000000,4.000000,4.000000,4.000000,4.000000,100.000000,,,,,,,,,,,,,,,,,,,,,,,,,,,,,,,,,,,,,,,,,,,,,,,,,,,,,,,,,,,,,,,,,,,,,,,,,,,,,,,,,,,,,,
1676062051.983580,1676062051.984313,83.000000,0.000000,4291.538574,4324.102539,4279.102539,4327.563965,4295.512695,4316.538574,4301.794922,4314.487305,4288.717773,4250.769043,4411.025879,4452.820313,4268.333496,4326.794922,2687.000000,4.000000,79.000000,,,,0.000000,4.000000,4.000000,4.000000,4.000000,4.000000,4.000000,4.000000,4.000000,4.000000,4.000000,4.000000,4.000000,4.000000,4.000000,100.000000,,,,,,,,,,,,,,,,,,,,,,,,,,,,,,,,,,,,,,,,,,,,,,,,,,,,,,,,,,,,,,,,,,,,,,,,,,,,,,,,,,,,,,
1676062051.991388,1676062051.992122,84.000000,0.000000,4292.820313,4326.153809,4278.077148,4326.153809,4292.436035,4305.512695,4292.051270,4307.051270,4286.922852,4245.897461,4411.666504,4444.743652,4281.538574,4328.717773,2969.000000,4.000000,79.000000,,,,0.000000,4.000000,4.000000,4.000000,4.000000,4.000000,4.000000,4.000000,4.000000,4.000000,4.000000,4.000000,4.000000,4.000000,4.000000,100.000000,,,,,,,,,,,,,,,,,,,,,,,,,,,,,,,,,,,,,,,,,,,,,,,,,,,,,,,,,,,,,,,,,,,,,,,,,,,,,,,,,,,,,,
1676062051.999196,1676062051.999830,85.000000,0.000000,4300.897461,4326.025879,4278.589844,4325.384766,4280.128418,4297.436035,4275.769043,4287.820313,4280.256348,4238.846191,4398.589844,4435.128418,4276.922852,4324.871582,3363.000000,4.000000,79.000000,,,,0.000000,4.000000,4.000000,4.000000,4.000000,4.000000,4.000000,4.000000,4.000000,4.000000,4.000000,4.000000,4.000000,4.000000,4.000000,100.000000,,,,,,,,,,,,,,,,,,,,,,,,,,,,,,,,,,,,,,,,,,,,,,,,,,,,,,,,,,,,,,,,,,,,,,,,,,,,,,,,,,,,,,
1676062052.007005,1676062052.007639,86.000000,0.000000,4299.487305,4323.589844,4275.000000,4327.692383,4281.538574,4295.128418,4258.589844,4277.051270,4276.538574,4242.051270,4391.153809,4436.025879,4272.179688,4326.153809,2608.000000,4.000000,79.000000,,,,0.000000,4.000000,4.000000,4.000000,4.000000,4.000000,4.000000,4.000000,4.000000,4.000000,4.000000,4.000000,4.000000,4.000000,4.000000,100.000000,,,,,,,,,,,,,,,,,,,,,,,,,,,,,,,,,,,,,,,,,,,,,,,,,,,,,,,,,,,,,,,,,,,,,,,,,,,,,,,,,,,,,,
1676062052.014813,1676062052.015347,87.000000,0.000000,4302.436035,4331.794922,4279.230957,4333.974121,4295.641113,4295.256348,4259.358887,4277.820313,4277.307617,4248.717773,4408.589844,4440.897461,4286.410156,4337.563965,2687.000000,4.000000,79.000000,,,,0.000000,4.000000,4.000000,4.000000,4.000000,4.000000,4.000000,4.000000,4.000000,4.000000,4.000000,4.000000,4.000000,4.000000,4.000000,100.000000,,,,,,,,,,,,,,,,,,,,,,,,,,,,,,,,,,,,,,,,,,,,,,,,,,,,,,,,,,,,,,,,,,,,,,,,,,,,,,,,,,,,,,
1676062052.022622,1676062052.023155,88.000000,0.000000,4313.205078,4343.846191,4290.641113,4341.025879,4298.846191,4299.230957,4276.153809,4280.128418,4276.794922,4249.487305,4426.153809,4445.384766,4298.717773,4345.128418,2969.000000,4.000000,79.000000,,,,0.000000,4.000000,4.000000,4.000000,4.000000,4.000000,4.000000,4.000000,4.000000,4.000000,4.000000,4.000000,4.000000,4.000000,4.000000,100.000000,,,,,,,,,,,,,,,,,,,,,,,,,,,,,,,,,,,,,,,,,,,,,,,,,,,,,,,,,,,,,,,,,,,,,,,,,,,,,,,,,,,,,,
1676062052.030430,1676062052.030864,89.000000,0.000000,4312.307617,4341.282227,4296.666504,4343.333496,4295.897461,4307.179688,4292.820313,4290.256348,4279.871582,4250.641113,4426.538574,4456.794922,4296.282227,4343.717773,3363.000000,4.000000,79.000000,,,,0.000000,4.000000,4.000000,4.000000,4.000000,4.000000,4.000000,4.000000,4.000000,4.000000,4.000000,4.000000,4.000000,4.000000,4.000000,100.000000,,,,,,,,,,,,,,,,,,,,,,,,,,,,,,,,,,,,,,,,,,,,,,,,,,,,,,,,,,,,,,,,,,,,,,,,,,,,,,,,,,,,,,
1676062052.038238,1676062052.038672,90.000000,0.000000,4305.641113,4330.897461,4294.615234,4342.307617,4298.846191,4310.641113,4303.589844,4298.333496,4280.769043,4252.179688,4420.641113,4464.102539,4297.307617,4343.077148,2608.000000,4.000000,79.000000,,,,0.000000,4.000000,4.000000,4.000000,4.000000,4.000000,4.000000,4.000000,4.000000,4.000000,4.000000,4.000000,4.000000,4.000000,4.000000,100.000000,,,,,,,,,,,,,,,,,,,,,,,,,,,,,,,,,,,,,,,,,,,,,,,,,,,,,,,,,,,,,,,,,,,,,,,,,,,,,,,,,,,,,,
1676062052.046047,1676062052.046381,91.000000,0.000000,4310.128418,4331.410156,4295.897461,4343.461426,4299.871582,4306.922852,4309.358887,4297.179688,4277.563965,4249.615234,4415.769043,4458.717773,4293.717773,4345.000000,2687.000000,4.000000,79.000000,,,,0.000000,4.000000,4.000000,4.000000,4.000000,4.000000,4.000000,4.000000,4.000000,4.000000,4.000000,4.000000,4.000000,4.000000,4.000000,100.000000,,,,,,,,,,,,,,,,,,,,,,,,,,,,,,,,,,,,,,,,,,,,,,,,,,,,,,,,,,,,,,,,,,,,,,,,,,,,,,,,,,,,,,
1676062052.053855,1676062052.054189,92.000000,0.000000,4312.563965,4329.871582,4302.307617,4342.051270,4297.179688,4307.563965,4313.205078,4304.358887,4280.641113,4248.205078,4413.333496,4460.897461,4279.102539,4340.256348,2969.000000,4.000000,79.000000,,,,0.000000,4.000000,4.000000,4.000000,4.000000,4.000000,4.000000,4.000000,4.000000,4.000000,4.000000,4.000000,4.000000,4.000000,4.000000,100.000000,,,,,,,,,,,,,,,,,,,,,,,,,,,,,,,,,,,,,,,,,,,,,,,,,,,,,,,,,,,,,,,,,,,,,,,,,,,,,,,,,,,,,,
1676062052.061664,1676062052.061898,93.000000,0.000000,4307.563965,4321.282227,4301.153809,4333.846191,4294.871582,4312.307617,4310.769043,4312.051270,4284.743652,4249.871582,4414.743652,4473.077148,4283.461426,4340.384766,3363.000000,4.000000,79.000000,,,,0.000000,4.000000,4.000000,4.000000,4.000000,4.000000,4.000000,4.000000,4.000000,4.000000,4.000000,4.000000,4.000000,4.000000,4.000000,100.000000,,,,,,,,,,,,,,,,,,,,,,,,,,,,,,,,,,,,,,,,,,,,,,,,,,,,,,,,,,,,,,,,,,,,,,,,,,,,,,,,,,,,,,
1676062052.069472,1676062052.069706,94.000000,0.000000,4307.563965,4321.410156,4297.692383,4332.820313,4295.256348,4312.179688,4297.948730,4306.410156,4284.230957,4250.128418,4415.512695,4467.307617,4298.077148,4350.384766,2608.000000,4.000000,79.000000,,,,0.000000,4.000000,4.000000,4.000000,4.000000,4.000000,4.000000,4.000000,4.000000,4.000000,4.000000,4.000000,4.000000,4.000000,4.000000,100.000000,,,,,,,,,,,,,,,,,3.253472,29.918798,1.151043,0.942690,0.188898,1.626878,19.708136,0.954590,0.580088,0.405874,3.297847,41.166771,2.994750,1.306241,0.143196,1.566353,23.140369,1.396506,0.734032,0.224703,1.587537,7.521257,0.524325,0.203906,0.088457,0.808871,5.520031,0.746925,0.214973,0.118447,1.427077,9.161046,1.070743,1.102341,0.101627,2.289939,32.134838,0.628269,0.648156,0.161899,1.123377,17.222755,0.630510,0.409023,0.145928,2.431085,9.185804,0.763561,0.436376,0.136092,4.002886,24.031134,1.225961,0.857128,0.210232,5.179115,44.930508,2.827506,1.575297,0.189527,3.228997,17.659298,0.753700,0.710566,0.254529,3.385390,24.729233,1.088423,1.012767,0.180376
1676062052.077280,1676062052.077415,95.000000,0.000000,4306.666504,4323.974121,4297.948730,4335.769043,4296.410156,4304.230957,4283.333496,4293.589844,4279.358887,4250.512695,4412.051270,4447.307617,4291.410156,4351.025879,2687.000000,4.000000,79.000000,,,,0.000000,4.000000,4.000000,4.000000,4.000000,4.000000,4.000000,4.000000,4.000000,4.000000,4.000000,4.000000,4.000000,4.000000,4.000000,100.000000,,,,,,,,,,,,,,,,,,,,,,,,,,,,,,,,,,,,,,,,,,,,,,,,,,,,,,,,,,,,,,,,,,,,,,,,,,,,,,,,,,,,,,
1676062052.085089,1676062052.085223,96.000000,0.000000,4293.974121,4313.974121,4288.205078,4320.128418,4286.282227,4295.512695,4267.948730,4275.384766,4268.974121,4247.436035,4403.717773,4431.538574,4282.692383,4340.384766,2969.000000,4.000000,79.000000,,,,0.000000,4.000000,4.000000,4.000000,4.000000,4.000000,4.000000,4.000000,4.000000,4.000000,4.000000,4.000000,4.000000,4.000000,4.000000,100.000000,,,,,,,,,,,,,,,,,,,,,,,,,,,,,,,,,,,,,,,,,,,,,,,,,,,,,,,,,,,,,,,,,,,,,,,,,,,,,,,,,,,,,,
1676062052.092897,1676062052.092932,97.000000,0.000000,4288.846191,4306.922852,4280.897461,4309.102539,4276.666504,4292.563965,4255.769043,4264.358887,4264.487305,4245.897461,4403.846191,4433.333496,4295.897461,4346.025879,3363.000000,4.000000,79.000000,,,,0.000000,4.000000,4.000000,4.000000,4.000000,4.000000,4.000000,4.000000,4.000000,4.000000,4.000000,4.000000,4.000000,4.000000,4.000000,100.000000,,,,,,,,,,,,,,,,,,,,,,,,,,,,,,,,,,,,,,,,,,,,,,,,,,,,,,,,,,,,,,,,,,,,,,,,,,,,,,,,,,,,,,
1676062052.100706,1676062052.100840,98.000000,0.000000,4308.589844,4321.153809,4299.615234,4328.205078,4285.897461,4293.846191,4264.871582,4279.743652,4274.358887,4252.051270,4417.820313,4458.974121,4310.256348,4372.307617,2608.000000,4.000000,79.000000,,,,0.000000,4.000000,4.000000,4.000000,4.000000,4.000000,4.000000,4.000000,4.000000,4.000000,4.000000,4.000000,4.000000,4.000000,4.000000,100.000000,,,,,,,,,,,,,,,,,,,,,,,,,,,,,,,,,,,,,,,,,,,,,,,,,,,,,,,,,,,,,,,,,,,,,,,,,,,,,,,,,,,,,,
1676062052.108514,1676062052.108649,99.000000,0.000000,4322.179688,4327.179688,4318.205078,4342.436035,4299.230957,4300.384766,4288.333496,4302.820313,4281.410156,4256.153809,4429.871582,4481.922852,4308.717773,4384.487305,2687.000000,4.000000,79.000000,,,,0.000000,4.000000,4.000000,4.000000,4.000000,4.000000,4.000000,4.000000,4.000000,4.000000,4.000000,4.000000,4.000000,4.000000,4.000000,100.000000,,,,,,,,,,,,,,,,,,,,,,,,,,,,,,,,,,,,,,,,,,,,,,,,,,,,,,,,,,,,,,,,,,,,,,,,,,,,,,,,,,,,,,
1676062052.116322,1676062052.116557,100.000000,0.000000,4306.282227,4310.512695,4307.948730,4331.153809,4294.358887,4306.282227,4297.692383,4307.692383,4280.384766,4253.461426,4433.077148,4481.666504,4306.025879,4375.641113,2969.000000,4.000000,79.000000,,,,0.000000,4.000000,4.000000,4.000000,4.000000,4.000000,4.000000,4.000000,4.000000,4.000000,4.000000,4.000000,4.000000,4.000000,4.000000,100.000000,,,,,,,,,,,,,,,,,,,,,,,,,,,,,,,,,,,,,,,,,,,,,,,,,,,,,,,,,,,,,,,,,,,,,,,,,,,,,,,,,,,,,,
1676062052.124131,1676062052.124466,101.000000,0.000000,4291.922852,4306.282227,4292.307617,4322.948730,4286.666504,4305.512695,4299.871582,4304.615234,4282.692383,4251.538574,4433.589844,4476.282227,4311.410156,4371.282227,3363.000000,4.000000,79.000000,,,,0.000000,4.000000,4.000000,4.000000,4.000000,4.000000,4.000000,4.000000,4.000000,4.000000,4.000000,4.000000,4.000000,4.000000,4.000000,100.000000,,,,,,,,,,,,,,,,,,,,,,,,,,,,,,,,,,,,,,,,,,,,,,,,,,,,,,,,,,,,,,,,,,,,,,,,,,,,,,,,,,,,,,
1676062052.131939,1676062052.132274,102.000000,0.000000,4296.282227,4311.538574,4288.717773,4327.820313,4290.769043,4306.922852,4309.230957,4305.897461,4281.794922,4252.820313,4430.512695,4472.051270,4311.922852,4372.692383,2608.000000,4.000000,79.000000,,,,0.000000,4.000000,4.000000,4.000000,4.000000,4.000000,4.000000,4.000000,4.000000,4.000000,4.000000,4.000000,4.000000,4.000000,4.000000,100.000000,,,,,,,,,,,,,,,,,,,,,,,,,,,,,,,,,,,,,,,,,,,,,,,,,,,,,,,,,,,,,,,,,,,,,,,,,,,,,,,,,,,,,,
1676062052.139748,1676062052.140082,103.000000,0.000000,4296.794922,4299.230957,4287.948730,4326.538574,4289.358887,4310.641113,4312.820313,4304.615234,4276.410156,4250.512695,4426.153809,4464.358887,4302.307617,4368.717773,2687.000000,4.000000,79.000000,,,,0.000000,4.000000,4.000000,4.000000,4.000000,4.000000,4.000000,4.000000,4.000000,4.000000,4.000000,4.000000,4.000000,4.000000,4.000000,100.000000,,,,,,,,,,,,,,,,,,,,,,,,,,,,,,,,,,,,,,,,,,,,,,,,,,,,,,,,,,,,,,,,,,,,,,,,,,,,,,,,,,,,,,
1676062052.147556,1676062052.147991,104.000000,0.000000,4289.743652,4291.410156,4289.871582,4318.589844,4280.384766,4303.589844,4302.820313,4301.282227,4277.179688,4248.717773,4429.230957,4465.256348,4302.948730,4368.589844,2969.000000,4.000000,79.000000,,,,0.000000,4.000000,4.000000,4.000000,4.000000,4.000000,4.000000,4.000000,4.000000,4.000000,4.000000,4.000000,4.000000,4.000000,4.000000,100.000000,,,,,,,,,,,,,,,,,,,,,,,,,,,,,,,,,,,,,,,,,,,,,,,,,,,,,,,,,,,,,,,,,,,,,,,,,,,,,,,,,,,,,,
1676062052.155364,1676062052.155799,105.000000,0.000000,4296.153809,4306.922852,4292.563965,4318.589844,4279.102539,4294.743652,4290.256348,4293.205078,4277.948730,4256.282227,4433.205078,4468.589844,4316.922852,4375.128418,3363.000000,4.000000,79.000000,,,,0.000000,4.000000,4.000000,4.000000,4.000000,4.000000,4.000000,4.000000,4.000000,4.000000,4.000000,4.000000,4.000000,4.000000,4.000000,100.000000,,,,,,,,,,,,,,,,,,,,,,,,,,,,,,,,,,,,,,,,,,,,,,,,,,,,,,,,,,,,,,,,,,,,,,,,,,,,,,,,,,,,,,
1676062052.163173,1676062052.163708,106.000000,0.000000,4296.666504,4306.794922,4286.922852,4320.000000,4283.461426,4295.512695,4281.538574,4284.358887,4276.410156,4265.384766,4429.102539,4462.307617,4324.615234,4374.358887,2608.000000,4.000000,79.000000,,,,0.000000,4.000000,4.000000,4.000000,4.000000,4.000000,4.000000,4.000000,4.000000,4.000000,4.000000,4.000000,4.000000,4.000000,4.000000,100.000000,,,,,,,,,,,,,,,,,,,,,,,,,,,,,,,,,,,,,,,,,,,,,,,,,,,,,,,,,,,,,,,,,,,,,,,,,,,,,,,,,,,,,,
1676062052.170981,1676062052.171516,107.000000,0.000000,4282.051270,4290.384766,4275.641113,4309.743652,4280.641113,4292.307617,4269.487305,4277.307617,4276.153809,4265.384766,4429.615234,4455.769043,4324.615234,4373.846191,2687.000000,4.000000,79.000000,,,,0.000000,4.000000,4.000000,4.000000,4.000000,4.000000,4.000000,4.000000,4.000000,4.000000,4.000000,4.000000,4.000000,4.000000,4.000000,100.000000,,,,,,,,,,,,,,,,,,,,,,,,,,,,,,,,,,,,,,,,,,,,,,,,,,,,,,,,,,,,,,,,,,,,,,,,,,,,,,,,,,,,,,
1676062052.178789,1676062052.179424,108.000000,0.000000,4285.769043,4296.410156,4276.410156,4304.743652,4279.358887,4286.153809,4257.051270,4269.871582,4274.102539,4259.615234,4437.051270,4456.794922,4328.974121,4380.769043,2969.000000,4.000000,79.000000,,,,0.000000,4.000000,4.000000,4.000000,4.000000,4.000000,4.000000,4.000000,4.000000,4.000000,4.000000,4.000000,4.000000,4.000000,4.000000,100.000000,,,,,,,,,,,,,,,,,,,,,,,,,,,,,,,,,,,,,,,,,,,,,,,,,,,,,,,,,,,,,,,,,,,,,,,,,,,,,,,,,,,,,,
1676062052.186598,1676062052.187233,109.000000,0.000000,4305.256348,4313.717773,4289.358887,4315.000000,4288.717773,4292.563965,4265.000000,4272.692383,4276.538574,4262.179688,4443.461426,4470.512695,4337.563965,4389.102539,3363.000000,4.000000,79.000000,,,,0.000000,4.000000,4.000000,4.000000,4.000000,4.000000,4.000000,4.000000,4.000000,4.000000,4.000000,4.000000,4.000000,4.000000,4.000000,100.000000,,,,,,,,,,,,,,,,,,,,,,,,,,,,,,,,,,,,,,,,,,,,,,,,,,,,,,,,,,,,,,,,,,,,,,,,,,,,,,,,,,,,,,
1676062052.194406,1676062052.194941,110.000000,0.000000,4308.205078,4310.128418,4297.436035,4326.153809,4294.615234,4304.358887,4288.205078,4292.692383,4287.948730,4267.436035,4453.077148,4491.794922,4343.974121,4396.282227,2608.000000,4.000000,79.000000,,,,0.000000,4.000000,4.000000,4.000000,4.000000,4.000000,4.000000,4.000000,4.000000,4.000000,4.000000,4.000000,4.000000,4.000000,4.000000,100.000000,,,,,,,,,,,,,,,,,2.844932,26.281816,1.034783,0.877537,0.188941,1.502833,17.419544,0.914497,0.539249,0.402945,2.961482,35.635609,2.372375,1.216526,0.152157,1.368118,20.298452,1.276699,0.657240,0.224252,1.367211,6.670363,0.506404,0.213937,0.082410,0.779529,5.730631,0.724573,0.207770,0.096776,1.368252,9.778840,0.901221,1.148006,0.097554,2.181349,36.855385,0.516267,0.655037,0.171355,1.063380,20.405815,0.703254,0.374578,0.163095,2.307349,9.126746,0.717153,0.406943,0.126892,3.681140,22.182047,0.924408,0.884271,0.223837,4.922337,42.096355,1.975894,1.582551,0.188911,2.921313,15.225915,0.607358,0.696494,0.227578,2.870557,21.468990,0.779497,1.055093,0.144546
1676062052.202215,1676062052.202750,111.000000,0.000000,4298.461426,4295.897461,4296.410156,4325.128418,4293.974121,4306.794922,4300.897461,4313.846191,4295.512695,4268.974121,4463.974121,4498.205078,4346.666504,4396.922852,2687.000000,4.000000,79.000000,,,,0.000000,4.000000,4.000000,4.000000,4.000000,4.000000,4.000000,4.000000,4.000000,4.000000,4.000000,4.000000,4.000000,4.000000,4.000000,100.000000,,,,,,,,,,,,,,,,,,,,,,,,,,,,,,,,,,,,,,,,,,,,,,,,,,,,,,,,,,,,,,,,,,,,,,,,,,,,,,,,,,,,,,
1676062052.210023,1676062052.210458,112.000000,0.000000,4290.384766,4296.666504,4293.077148,4318.333496,4292.948730,4303.589844,4305.000000,4317.179688,4293.846191,4266.410156,4457.563965,4485.256348,4338.717773,4385.000000,2969.000000,4.000000,79.000000,,,,0.000000,4.000000,4.000000,4.000000,4.000000,4.000000,4.000000,4.000000,4.000000,4.000000,4.000000,4.000000,4.000000,4.000000,4.000000,100.000000,,,,,,,,,,,,,,,,,,,,,,,,,,,,,,,,,,,,,,,,,,,,,,,,,,,,,,,,,,,,,,,,,,,,,,,,,,,,,,,,,,,,,,
1676062052.217831,1676062052.218367,113.000000,0.000000,4282.692383,4297.307617,4292.051270,4311.666504,4291.794922,4307.820313,4314.487305,4315.256348,4294.102539,4263.589844,4440.897461,4477.179688,4329.102539,4373.589844,3363.000000,4.000000,79.000000,,,,0.000000,4.000000,4.000000,4.000000,4.000000,4.000000,4.000000,4.000000,4.000000,4.000000,4.000000,4.000000,4.000000,4.000000,4.000000,100.000000,,,,,,,,,,,,,,,,,,,,,,,,,,,,,,,,,,,,,,,,,,,,,,,,,,,,,,,,,,,,,,,,,,,,,,,,,,,,,,,,,,,,,,
1676062052.225640,1676062052.226175,114.000000,0.000000,4277.436035,4283.205078,4290.128418,4307.436035,4290.641113,4313.461426,4317.820313,4315.000000,4292.307617,4264.487305,4432.820313,4478.461426,4324.743652,4372.948730,2608.000000,4.000000,79.000000,,,,0.000000,4.000000,4.000000,4.000000,4.000000,4.000000,4.000000,4.000000,4.000000,4.000000,4.000000,4.000000,4.000000,4.000000,4.000000,100.000000,,,,,,,,,,,,,,,,,,,,,,,,,,,,,,,,,,,,,,,,,,,,,,,,,,,,,,,,,,,,,,,,,,,,,,,,,,,,,,,,,,,,,,
1676062052.233448,1676062052.234083,115.000000,0.000000,4275.769043,4281.153809,4286.025879,4313.461426,4292.563965,4307.051270,4307.307617,4305.256348,4282.563965,4264.230957,4429.230957,4470.128418,4317.436035,4369.743652,2687.000000,4.000000,79.000000,,,,0.000000,4.000000,4.000000,4.000000,4.000000,4.000000,4.000000,4.000000,4.000000,4.000000,4.000000,4.000000,4.000000,4.000000,4.000000,100.000000,,,,,,,,,,,,,,,,,,,,,,,,,,,,,,,,,,,,,,,,,,,,,,,,,,,,,,,,,,,,,,,,,,,,,,,,,,,,,,,,,,,,,,
1676062052.241256,1676062052.241892,116.000000,0.000000,4275.000000,4291.025879,4284.743652,4311.282227,4293.717773,4297.948730,4296.922852,4293.461426,4280.000000,4261.922852,4435.384766,4460.128418,4318.717773,4370.000000,2969.000000,4.000000,79.000000,,,,0.000000,4.000000,4.000000,4.000000,4.000000,4.000000,4.000000,4.000000,4.000000,4.000000,4.000000,4.000000,4.000000,4.000000,4.000000,100.000000,,,,,,,,,,,,,,,,,,,,,,,,,,,,,,,,,,,,,,,,,,,,,,,,,,,,,,,,,,,,,,,,,,,,,,,,,,,,,,,,,,,,,,
1676062052.249065,1676062052.249800,117.000000,0.000000,4278.333496,4286.794922,4284.743652,4298.846191,4290.512695,4293.077148,4286.922852,4276.282227,4273.333496,4261.282227,4440.641113,4457.948730,4336.922852,4378.974121,3363.000000,4.000000,79.000000,,,,0.000000,4.000000,4.000000,4.000000,4.000000,4.000000,4.000000,4.000000,4.000000,4.000000,4.000000,4.000000,4.000000,4.000000,4.000000,100.000000,,,,,,,,,,,,,,,,,,,,,,,,,,,,,,,,,,,,,,,,,,,,,,,,,,,,,,,,,,,,,,,,,,,,,,,,,,,,,,,,,,,,,,
1676062052.256873,1676062052.257609,118.000000,0.000000,4282.307617,4282.820313,4277.948730,4302.436035,4290.256348,4287.307617,4267.692383,4248.461426,4252.563965,4260.769043,4428.846191,4447.051270,4343.589844,4381.282227,2608.000000,4.000000,79.000000,,,,0.000000,4.000000,4.000000,4.000000,4.000000,4.000000,4.000000,4.000000,4.000000,4.000000,4.000000,4.000000,4.000000,4.000000,4.000000,100.000000,,,,,,,,,,,,,,,,,,,,,,,,,,,,,,,,,,,,,,,,,,,,,,,,,,,,,,,,,,,,,,,,,,,,,,,,,,,,,,,,,,,,,,
1676062052.264682,1676062052.265417,119.000000,0.000000,4289.743652,4293.077148,4274.743652,4313.461426,4298.589844,4283.974121,4247.692383,4235.128418,4249.743652,4262.692383,4428.461426,4439.487305,4338.717773,4384.615234,2687.000000,4.000000,79.000000,,,,0.000000,4.000000,4.000000,4.000000,4.000000,4.000000,4.000000,4.000000,4.000000,4.000000,4.000000,4.000000,4.000000,4.000000,4.000000,100.000000,,,,,,,,,,,,,,,,,,,,,,,,,,,,,,,,,,,,,,,,,,,,,,,,,,,,,,,,,,,,,,,,,,,,,,,,,,,,,,,,,,,,,,
1676062052.272490,1676062052.273126,120.000000,0.000000,4302.051270,4301.410156,4290.897461,4311.922852,4304.102539,4292.051270,4250.512695,4258.205078,4276.153809,4273.461426,4454.743652,4463.333496,4355.641113,4404.358887,2969.000000,4.000000,79.000000,,,,0.000000,4.000000,4.000000,4.000000,4.000000,4.000000,4.000000,4.000000,4.000000,4.000000,4.000000,4.000000,4.000000,4.000000,4.000000,100.000000,,,,,,,,,,,,,,,,,,,,,,,,,,,,,,,,,,,,,,,,,,,,,,,,,,,,,,,,,,,,,,,,,,,,,,,,,,,,,,,,,,,,,,
1676062052.280298,1676062052.280934,121.000000,0.000000,4305.256348,4297.563965,4305.512695,4312.179688,4301.025879,4305.128418,4276.538574,4293.077148,4297.179688,4291.153809,4475.897461,4498.974121,4381.794922,4420.769043,3363.000000,4.000000,79.000000,,,,0.000000,4.000000,4.000000,4.000000,4.000000,4.000000,4.000000,4.000000,4.000000,4.000000,4.000000,4.000000,4.000000,4.000000,4.000000,100.000000,,,,,,,,,,,,,,,,,,,,,,,,,,,,,,,,,,,,,,,,,,,,,,,,,,,,,,,,,,,,,,,,,,,,,,,,,,,,,,,,,,,,,,
1676062052.288107,1676062052.288643,122.000000,0.000000,4299.743652,4288.717773,4301.666504,4322.563965,4300.769043,4312.179688,4299.487305,4314.230957,4298.461426,4299.230957,4477.692383,4512.307617,4383.205078,4417.948730,2608.000000,4.000000,79.000000,,,,0.000000,4.000000,4.000000,4.000000,4.000000,4.000000,4.000000,4.000000,4.000000,4.000000,4.000000,4.000000,4.000000,4.000000,4.000000,100.000000,,,,,,,,,,,,,,,,,,,,,,,,,,,,,,,,,,,,,,,,,,,,,,,,,,,,,,,,,,,,,,,,,,,,,,,,,,,,,,,,,,,,,,
1676062052.295915,1676062052.296551,123.000000,0.000000,4292.948730,4279.230957,4295.897461,4321.922852,4304.230957,4314.230957,4312.179688,4324.743652,4296.282227,4289.358887,4476.282227,4502.948730,4370.512695,4413.205078,2687.000000,4.000000,79.000000,,,,0.000000,4.000000,4.000000,4.000000,4.000000,4.000000,4.000000,4.000000,4.000000,4.000000,4.000000,4.000000,4.000000,4.000000,4.000000,100.000000,,,,,,,,,,,,,,,,,,,,,,,,,,,,,,,,,,,,,,,,,,,,,,,,,,,,,,,,,,,,,,,,,,,,,,,,,,,,,,,,,,,,,,
1676062052.303723,1676062052.304359,124.000000,0.000000,4289.871582,4277.948730,4297.051270,4313.461426,4305.384766,4320.384766,4324.871582,4330.512695,4298.333496,4281.025879,4472.307617,4497.436035,4364.871582,4414.487305,2969.000000,4.000000,79.000000,,,,0.000000,4.000000,4.000000,4.000000,4.000000,4.000000,4.000000,4.000000,4.000000,4.000000,4.000000,4.000000,4.000000,4.000000,4.000000,100.000000,,,,,,,,,,,,,,,,,,,,,,,,,,,,,,,,,,,,,,,,,,,,,,,,,,,,,,,,,,,,,,,,,,,,,,,,,,,,,,,,,,,,,,
1676062052.311532,1676062052.312268,125.000000,0.000000,4292.820313,4279.871582,4300.897461,4312.692383,4304.358887,4328.461426,4334.743652,4333.077148,4303.846191,4287.820313,4466.538574,4506.025879,4368.461426,4416.538574,3363.000000,4.000000,79.000000,,,,0.000000,4.000000,4.000000,4.000000,4.000000,4.000000,4.000000,4.000000,4.000000,4.000000,4.000000,4.000000,4.000000,4.000000,4.000000,100.000000,,,,,,,,,,,,,,,,,,,,,,,,,,,,,,,,,,,,,,,,,,,,,,,,,,,,,,,,,,,,,,,,,,,,,,,,,,,,,,,,,,,,,,
1676062052.319340,1676062052.320076,126.000000,0.000000,4286.794922,4269.487305,4296.922852,4308.589844,4299.743652,4324.102539,4329.230957,4327.563965,4302.051270,4290.128418,4462.436035,4498.974121,4366.538574,4410.384766,2608.000000,4.000000,79.000000,,,,0.000000,4.000000,4.000000,4.000000,4.000000,4.000000,4.000000,4.000000,4.000000,4.000000,4.000000,4.000000,4.000000,4.000000,4.000000,100.000000,,,,,,,,,,,,,,,,,2.311672,21.475075,0.918079,0.797768,0.191528,1.278913,14.291718,0.797121,0.496646,0.383805,2.473916,28.155222,1.719636,1.101303,0.158943,1.079423,16.294846,1.100911,0.585269,0.223304,1.200520,5.552587,0.496686,0.239920,0.080071,0.775987,6.024611,0.707025,0.192554,0.082618,1.262135,11.182661,0.875818,1.091696,0.096363,1.931830,41.045074,0.524712,0.631114,0.172184,0.932539,22.917114,0.719473,0.329468,0.172663,2.197774,8.821643,0.663041,0.359295,0.118870,3.163596,19.695122,0.728310,0.863195,0.237181,4.410683,37.486584,1.311626,1.504778,0.198761,2.456922,12.386089,0.535327,0.642581,0.200688,2.276537,17.442551,0.530454,1.025612,0.116395
1676062052.327149,1676062052.327985,127.000000,0.000000,4273.717773,4259.615234,4285.897461,4301.282227,4293.846191,4307.948730,4314.615234,4314.487305,4290.641113,4279.743652,4457.820313,4475.256348,4357.948730,4400.256348,79.000000,4.000000,79.000000,,,,0.000000,4.000000,4.000000,4.000000,4.000000,4.000000,4.000000,4.000000,4.000000,4.000000,4.000000,4.000000,4.000000,4.000000,4.000000,100.000000,,,,,,,,,,,,,,,,,,,,,,,,,,,,,,,,,,,,,,,,,,,,,,,,,,,,,,,,,,,,,,,,,,,,,,,,,,,,,,,,,,,,,,
1676062052.334957,1676062052.335793,0.000000,0.000000,4274.230957,4264.615234,4279.358887,4297.692383,4292.179688,4295.000000,4301.666504,4299.487305,4280.769043,4276.410156,4456.666504,4469.871582,4359.487305,4403.974121,2414.000000,4.000000,79.000000,,,,0.000000,4.000000,4.000000,4.000000,4.000000,4.000000,4.000000,4.000000,4.000000,4.000000,4.000000,4.000000,4.000000,4.000000,4.000000,100.000000,,,,,,,,,,,,,,,,,,,,,,,,,,,,,,,,,,,,,,,,,,,,,,,,,,,,,,,,,,,,,,,,,,,,,,,,,,,,,,,,,,,,,,
1676062052.342765,1676062052.343701,1.000000,0.000000,4282.820313,4274.102539,4281.282227,4299.102539,4289.871582,4280.897461,4284.871582,4281.282227,4272.820313,4279.358887,4457.307617,4471.410156,4369.358887,4411.153809,2408.000000,4.000000,79.000000,,,,0.000000,4.000000,4.000000,4.000000,4.000000,4.000000,4.000000,4.000000,4.000000,4.000000,4.000000,4.000000,4.000000,4.000000,4.000000,100.000000,,,,,,,,,,,,,,,,,,,,,,,,,,,,,,,,,,,,,,,,,,,,,,,,,,,,,,,,,,,,,,,,,,,,,,,,,,,,,,,,,,,,,,
1676062052.350574,1676062052.351510,2.000000,0.000000,4288.333496,4278.333496,4284.487305,4302.179688,4288.846191,4266.025879,4257.179688,4257.692383,4264.102539,4278.974121,4458.333496,4465.641113,4380.256348,4415.769043,2282.000000,4.000000,79.000000,,,,0.000000,4.000000,4.000000,4.000000,4.000000,4.000000,4.000000,4.000000,4.000000,4.000000,4.000000,4.000000,4.000000,4.000000,4.000000,100.000000,,,,,,,,,,,,,,,,,,,,,,,,,,,,,,,,,,,,,,,,,,,,,,,,,,,,,,,,,,,,,,,,,,,,,,,,,,,,,,,,,,,,,,
1676062052.358382,1676062052.359418,3.000000,0.000000,4299.358887,4280.897461,4292.436035,4306.153809,4294.615234,4262.436035,4236.666504,4239.487305,4255.128418,4283.461426,4464.358887,4473.717773,4392.948730,4430.128418,2172.000000,4.000000,79.000000,,,,0.000000,4.000000,4.000000,4.000000,4.000000,4.000000,4.000000,4.000000,4.000000,4.000000,4.000000,4.000000,4.000000,4.000000,4.000000,100.000000,,,,,,,,,,,,,,,,,,,,,,,,,,,,,,,,,,,,,,,,,,,,,,,,,,,,,,,,,,,,,,,,,,,,,,,,,,,,,,,,,,,,,,
1676062052.366191,1676062052.367327,4.000000,0.000000,4308.846191,4286.153809,4306.666504,4314.230957,4296.922852,4273.333496,4246.410156,4244.358887,4254.615234,4291.538574,4479.871582,4495.128418,4404.230957,4448.461426,2256.000000,4.000000,79.000000,,,,0.000000,4.000000,4.000000,4.000000,4.000000,4.000000,4.000000,4.000000,4.000000,4.000000,4.000000,4.000000,4.000000,4.000000,4.000000,100.000000,,,,,,,,,,,,,,,,,,,,,,,,,,,,,,,,,,,,,,,,,,,,,,,,,,,,,,,,,,,,,,,,,,,,,,,,,,,,,,,,,,,,,,
1676062052.373999,1676062052.375135,5.000000,0.000000,4304.871582,4284.615234,4313.333496,4311.410156,4294.358887,4288.846191,4277.563965,4271.410156,4268.205078,4295.128418,4494.230957,4518.077148,4406.282227,4456.282227,2358.000000,4.000000,79.000000,,,,0.000000,4.000000,4.000000,4.000000,4.000000,4.000000,4.000000,4.000000,4.000000,4.000000,4.000000,4.000000,4.000000,4.000000,4.000000,100.000000,,,,,,,,,,,,,,,,,,,,,,,,,,,,,,,,,,,,,,,,,,,,,,,,,,,,,,,,,,,,,,,,,,,,,,,,,,,,,,,,,,,,,,
1676062052.381807,1676062052.382943,6.000000,0.000000,4291.922852,4272.436035,4305.641113,4300.641113,4297.051270,4300.384766,4302.820313,4299.871582,4284.358887,4292.179688,4494.743652,4527.820313,4399.230957,4450.769043,2179.000000,4.000000,79.000000,,,,0.000000,4.000000,4.000000,4.000000,4.000000,4.000000,4.000000,4.000000,4.000000,4.000000,4.000000,4.000000,4.000000,4.000000,4.000000,100.000000,,,,,,,,,,,,,,,,,,,,,,,,,,,,,,,,,,,,,,,,,,,,,,,,,,,,,,,,,,,,,,,,,,,,,,,,,,,,,,,,,,,,,,
1676062052.389616,1676062052.390652,7.000000,0.000000,4274.871582,4256.794922,4291.410156,4295.384766,4295.769043,4309.871582,4311.794922,4315.512695,4290.641113,4287.307617,4478.077148,4506.794922,4385.000000,4435.512695,2209.000000,4.000000,79.000000,,,,0.000000,4.000000,4.000000,4.000000,4.000000,4.000000,4.000000,4.000000,4.000000,4.000000,4.000000,4.000000,4.000000,4.000000,4.000000,100.000000,,,,,,,,,,,,,,,,,,,,,,,,,,,,,,,,,,,,,,,,,,,,,,,,,,,,,,,,,,,,,,,,,,,,,,,,,,,,,,,,,,,,,,
1676062052.397424,1676062052.398460,8.000000,0.000000,4260.128418,4248.974121,4278.717773,4288.974121,4287.436035,4312.307617,4315.769043,4320.256348,4289.487305,4276.666504,4452.436035,4479.102539,4365.512695,4415.512695,2027.000000,4.000000,79.000000,,,,0.000000,4.000000,4.000000,4.000000,4.000000,4.000000,4.000000,4.000000,4.000000,4.000000,4.000000,4.000000,4.000000,4.000000,4.000000,100.000000,,,,,,,,,,,,,,,,,,,,,,,,,,,,,,,,,,,,,,,,,,,,,,,,,,,,,,,,,,,,,,,,,,,,,,,,,,,,,,,,,,,,,,
1676062052.405233,1676062052.406169,9.000000,0.000000,4251.153809,4241.538574,4270.000000,4279.102539,4277.436035,4304.871582,4314.358887,4317.563965,4291.794922,4264.871582,4439.871582,4467.820313,4352.948730,4404.487305,2165.000000,4.000000,79.000000,,,,0.000000,4.000000,4.000000,4.000000,4.000000,4.000000,4.000000,4.000000,4.000000,4.000000,4.000000,4.000000,4.000000,4.000000,4.000000,100.000000,,,,,,,,,,,,,,,,,,,,,,,,,,,,,,,,,,,,,,,,,,,,,,,,,,,,,,,,,,,,,,,,,,,,,,,,,,,,,,,,,,,,,,
1676062052.413041,1676062052.413977,10.000000,0.000000,4247.051270,4235.128418,4262.820313,4274.230957,4267.563965,4298.205078,4304.102539,4313.974121,4295.000000,4267.948730,4449.102539,4463.077148,4355.641113,4405.384766,2606.000000,4.000000,79.000000,,,,0.000000,4.000000,4.000000,4.000000,4.000000,4.000000,4.000000,4.000000,4.000000,4.000000,4.000000,4.000000,4.000000,4.000000,4.000000,100.000000,,,,,,,,,,,,,,,,,,,,,,,,,,,,,,,,,,,,,,,,,,,,,,,,,,,,,,,,,,,,,,,,,,,,,,,,,,,,,,,,,,,,,,
1676062052.420849,1676062052.421686,11.000000,0.000000,4248.461426,4241.922852,4263.846191,4279.615234,4270.000000,4292.307617,4294.615234,4312.948730,4295.641113,4278.077148,4460.641113,4465.897461,4363.333496,4410.512695,2680.000000,4.000000,79.000000,,,,0.000000,4.000000,4.000000,4.000000,4.000000,4.000000,4.000000,4.000000,4.000000,4.000000,4.000000,4.000000,4.000000,4.000000,4.000000,100.000000,,,,,,,,,,,,,,,,,,,,,,,,,,,,,,,,,,,,,,,,,,,,,,,,,,,,,,,,,,,,,,,,,,,,,,,,,,,,,,,,,,,,,,
1676062052.428658,1676062052.429494,12.000000,0.000000,4248.205078,4250.128418,4266.922852,4280.769043,4275.897461,4285.769043,4292.563965,4313.846191,4295.641113,4281.025879,4462.436035,4473.717773,4366.538574,4415.128418,2957.000000,4.000000,79.000000,,,,0.000000,4.000000,4.000000,4.000000,4.000000,4.000000,4.000000,4.000000,4.000000,4.000000,4.000000,4.000000,4.000000,4.000000,4.000000,100.000000,,,,,,,,,,,,,,,,,,,,,,,,,,,,,,,,,,,,,,,,,,,,,,,,,,,,,,,,,,,,,,,,,,,,,,,,,,,,,,,,,,,,,,
1676062052.436466,1676062052.437203,13.000000,0.000000,4244.358887,4246.153809,4264.102539,4275.384766,4268.846191,4277.692383,4285.512695,4308.717773,4294.743652,4279.871582,4460.512695,4471.025879,4370.256348,4418.717773,3360.000000,4.000000,79.000000,,,,0.000000,4.000000,4.000000,4.000000,4.000000,4.000000,4.000000,4.000000,4.000000,4.000000,4.000000,4.000000,4.000000,4.000000,4.000000,100.000000,,,,,,,,,,,,,,,,,,,,,,,,,,,,,,,,,,,,,,,,,,,,,,,,,,,,,,,,,,,,,,,,,,,,,,,,,,,,,,,,,,,,,,
1676062052.444275,1676062052.445011,14.000000,0.000000,4253.589844,4246.282227,4266.794922,4277.307617,4264.358887,4267.692383,4265.897461,4291.025879,4285.256348,4281.410156,4459.487305,4469.615234,4379.230957,4427.948730,2606.000000,4.000000,79.000000,,,,0.000000,4.000000,4.000000,4.000000,4.000000,4.000000,4.000000,4.000000,4.000000,4.000000,4.000000,4.000000,4.000000,4.000000,4.000000,100.000000,1.000000,75.000000,4.000000,4.000000,3.000000,4.000000,4.000000,3.000000,3.000000,3.000000,4.000000,4.000000,4.000000,3.000000,4.000000,4.000000,1.780231,16.527477,0.820316,0.721537,0.197789,0.998579,11.080067,0.645481,0.461289,0.355735,1.999925,20.278519,1.207365,0.988065,0.162012,0.762863,12.071292,0.932687,0.524874,0.222697,1.142433,4.468174,0.506633,0.271316,0.082931,0.811943,6.260592,0.702631,0.173352,0.075510,1.141444,13.371241,0.999504,0.954442,0.098080,1.604558,43.691654,0.558586,0.590155,0.163671,0.777861,24.107718,0.673504,0.285328,0.171212,2.201367,8.315974,0.624360,0.306407,0.111013,2.573616,17.026552,0.660916,0.802070,0.245621,3.706079,31.864452,0.964919,1.366226,0.210565,1.956875,9.752188,0.544498,0.559448,0.182419,1.754820,13.458589,0.399037,0.929245,0.101776
1676062052.452083,1676062052.452720,15.000000,0.000000,4271.538574,4261.666504,4279.743652,4289.102539,4278.077148,4265.256348,4256.666504,4276.410156,4269.358887,4283.077148,4461.794922,4479.102539,4386.025879,4437.436035,2680.000000,4.000000,79.000000,,,,0.000000,4.000000,4.000000,4.000000,4.000000,4.000000,4.000000,4.000000,4.000000,4.000000,4.000000,4.000000,4.000000,4.000000,4.000000,100.000000,,,,,,,,,,,,,,,,,,,,,,,,,,,,,,,,,,,,,,,,,,,,,,,,,,,,,,,,,,,,,,,,,,,,,,,,,,,,,,,,,,,,,,
1676062052.459891,1676062052.460528,16.000000,0.000000,4270.897461,4270.769043,4283.077148,4297.820313,4289.615234,4275.000000,4267.948730,4274.358887,4261.794922,4274.230957,4460.641113,4473.717773,4377.307617,4432.563965,0.000000,4.000000,79.000000,,,,0.000000,4.000000,4.000000,4.000000,4.000000,4.000000,4.000000,4.000000,4.000000,4.000000,4.000000,4.000000,4.000000,4.000000,4.000000,100.000000,,,,,,,,,,,,,,,,,,,,,,,,,,,,,,,,,,,,,,,,,,,,,,,,,,,,,,,,,,,,,,,,,,,,,,,,,,,,,,,,,,,,,,
1676062052.467700,1676062052.468237,17.000000,0.000000,4252.179688,4253.589844,4263.589844,4283.461426,4282.692383,4285.256348,4278.974121,4271.025879,4259.615234,4255.641113,4440.512695,4447.820313,4355.512695,4412.051270,0.000000,4.000000,79.000000,,,,0.000000,4.000000,4.000000,4.000000,4.000000,4.000000,4.000000,4.000000,4.000000,4.000000,4.000000,4.000000,4.000000,4.000000,4.000000,100.000000,,,,,,,,,,,,,,,,,,,,,,,,,,,,,,,,,,,,,,,,,,,,,,,,,,,,,,,,,,,,,,,,,,,,,,,,,,,,,,,,,,,,,,
1676062052.475508,1676062052.476045,18.000000,0.000000,4239.615234,4233.205078,4246.666504,4263.589844,4275.769043,4289.102539,4284.358887,4267.820313,4255.769043,4244.102539,4416.922852,4431.282227,4337.179688,4393.846191,0.000000,4.000000,79.000000,,,,0.000000,4.000000,4.000000,4.000000,4.000000,4.000000,4.000000,4.000000,4.000000,4.000000,4.000000,4.000000,4.000000,4.000000,4.000000,100.000000,,,,,,,,,,,,,,,,,,,,,,,,,,,,,,,,,,,,,,,,,,,,,,,,,,,,,,,,,,,,,,,,,,,,,,,,,,,,,,,,,,,,,,
1676062052.483317,1676062052.483754,19.000000,0.000000,4242.692383,4237.563965,4253.589844,4270.769043,4283.846191,4295.000000,4293.589844,4282.179688,4258.589844,4246.538574,4417.820313,4441.282227,4330.256348,4392.051270,0.000000,4.000000,79.000000,,,,0.000000,4.000000,4.000000,4.000000,4.000000,4.000000,4.000000,4.000000,4.000000,4.000000,4.000000,4.000000,4.000000,4.000000,4.000000,100.000000,,,,,,,,,,,,,,,,,,,,,,,,,,,,,,,,,,,,,,,,,,,,,,,,,,,,,,,,,,,,,,,,,,,,,,,,,,,,,,,,,,,,,,
1676062052.491125,1676062052.491562,20.000000,0.000000,4252.692383,4250.769043,4265.384766,4289.358887,4294.615234,4302.436035,4304.871582,4300.897461,4271.410156,4252.820313,4434.615234,4457.692383,4334.102539,4398.077148,0.000000,4.000000,79.000000,,,,0.000000,4.000000,4.000000,4.000000,4.000000,4.000000,4.000000,4.000000,4.000000,4.000000,4.000000,4.000000,4.000000,4.000000,4.000000,100.000000,,,,,,,,,,,,,,,,,,,,,,,,,,,,,,,,,,,,,,,,,,,,,,,,,,,,,,,,,,,,,,,,,,,,,,,,,,,,,,,,,,,,,,
1676062052.498933,1676062052.499271,21.000000,0.000000,4262.307617,4251.025879,4271.794922,4286.922852,4293.717773,4303.717773,4306.282227,4305.384766,4282.051270,4258.589844,4442.436035,4461.538574,4345.000000,4405.512695,0.000000,4.000000,79.000000,,,,0.000000,4.000000,4.000000,4.000000,4.000000,4.000000,4.000000,4.000000,4.000000,4.000000,4.000000,4.000000,4.000000,4.000000,4.000000,100.000000,,,,,,,,,,,,,,,,,,,,,,,,,,,,,,,,,,,,,,,,,,,,,,,,,,,,,,,,,,,,,,,,,,,,,,,,,,,,,,,,,,,,,,
1676062052.506742,1676062052.507079,22.000000,0.000000,4265.384766,4247.692383,4273.333496,4280.384766,4290.769043,4301.153809,4302.179688,4305.641113,4283.846191,4264.871582,4441.794922,4465.128418,4355.128418,4416.794922,0.000000,4.000000,79.000000,,,,0.000000,4.000000,4.000000,4.000000,4.000000,4.000000,4.000000,4.000000,4.000000,4.000000,4.000000,4.000000,4.000000,4.000000,4.000000,100.000000,,,,,,,,,,,,,,,,,,,,,,,,,,,,,,,,,,,,,,,,,,,,,,,,,,,,,,,,,,,,,,,,,,,,,,,,,,,,,,,,,,,,,,
1676062052.514550,1676062052.514788,23.000000,0.000000,4264.743652,4249.871582,4270.128418,4290.641113,4293.461426,4294.230957,4294.487305,4308.333496,4282.051270,4273.717773,4449.871582,4473.717773,4360.128418,4429.615234,0.000000,4.000000,79.000000,,,,0.000000,4.000000,4.000000,4.000000,4.000000,4.000000,4.000000,4.000000,4.000000,4.000000,4.000000,4.000000,4.000000,4.000000,4.000000,100.000000,,,,,,,,,,,,,,,,,,,,,,,,,,,,,,,,,,,,,,,,,,,,,,,,,,,,,,,,,,,,,,,,,,,,,,,,,,,,,,,,,,,,,,
1676062052.522358,1676062052.522696,24.000000,0.000000,4272.948730,4259.102539,4273.589844,4298.589844,4294.102539,4287.563965,4283.974121,4305.128418,4282.436035,4281.538574,4467.051270,4482.179688,4370.641113,4441.794922,0.000000,4.000000,79.000000,,,,0.000000,4.000000,4.000000,4.000000,4.000000,4.000000,4.000000,4.000000,4.000000,4.000000,4.000000,4.000000,4.000000,4.000000,4.000000,100.000000,,,,,,,,,,,,,,,,,,,,,,,,,,,,,,,,,,,,,,,,,,,,,,,,,,,,,,,,,,,,,,,,,,,,,,,,,,,,,,,,,,,,,,
1676062052.530167,1676062052.530505,25.000000,0.000000,4290.897461,4270.769043,4287.563965,4299.358887,4292.948730,4276.922852,4276.794922,4293.077148,4280.384766,4285.897461,4476.666504,4488.333496,4385.000000,4453.589844,0.000000,4.000000,79.000000,,,,0.000000,4.000000,4.000000,4.000000,4.000000,4.000000,4.000000,4.000000,4.000000,4.000000,4.000000,4.000000,4.000000,4.000000,4.000000,100.000000,,,,,,,,,,,,,,,,,,,,,,,,,,,,,,,,,,,,,,,,,,,,,,,,,,,,,,,,,,,,,,,,,,,,,,,,,,,,,,,,,,,,,,
1676062052.537975,1676062052.538413,26.000000,0.000000,4300.384766,4271.025879,4295.512695,4305.000000,4293.461426,4264.487305,4266.538574,4278.333496,4266.922852,4288.461426,4474.230957,4492.948730,4387.948730,4461.282227,0.000000,4.000000,79.000000,,,,0.000000,4.000000,4.000000,4.000000,4.000000,4.000000,4.000000,4.000000,4.000000,4.000000,4.000000,4.000000,4.000000,4.000000,4.000000,100.000000,,,,,,,,,,,,,,,,,,,,,,,,,,,,,,,,,,,,,,,,,,,,,,,,,,,,,,,,,,,,,,,,,,,,,,,,,,,,,,,,,,,,,,
1676062052.545784,1676062052.546222,27.000000,0.000000,4300.384766,4264.230957,4296.410156,4310.384766,4293.974121,4264.871582,4257.307617,4272.307617,4256.794922,4289.102539,4473.461426,4494.230957,4382.307617,4462.692383,0.000000,4.000000,79.000000,,,,0.000000,4.000000,4.000000,4.000000,4.000000,4.000000,4.000000,4.000000,4.000000,4.000000,4.000000,4.000000,4.000000,4.000000,4.000000,100.000000,,,,,,,,,,,,,,,,,,,,,,,,,,,,,,,,,,,,,,,,,,,,,,,,,,,,,,,,,,,,,,,,,,,,,,,,,,,,,,,,,,,,,,
1676062052.553592,1676062052.554130,28.000000,0.000000,4296.538574,4267.692383,4301.282227,4309.230957,4296.794922,4274.487305,4267.179688,4281.282227,4265.256348,4286.666504,4476.666504,4493.205078,4383.205078,4462.820313,0.000000,4.000000,79.000000,,,,0.000000,4.000000,4.000000,4.000000,4.000000,4.000000,4.000000,4.000000,4.000000,4.000000,4.000000,4.000000,4.000000,4.000000,4.000000,100.000000,,,,,,,,,,,,,,,,,,,,,,,,,,,,,,,,,,,,,,,,,,,,,,,,,,,,,,,,,,,,,,,,,,,,,,,,,,,,,,,,,,,,,,
1676062052.561400,1676062052.561938,29.000000,0.000000,4288.205078,4268.333496,4292.692383,4301.794922,4297.051270,4282.307617,4288.846191,4298.846191,4280.512695,4288.846191,4477.051270,4495.512695,4386.410156,4457.820313,0.000000,4.000000,79.000000,,,,0.000000,4.000000,4.000000,4.000000,4.000000,4.000000,4.000000,4.000000,4.000000,4.000000,4.000000,4.000000,4.000000,4.000000,4.000000,100.000000,,,,,,,,,,,,,,,,,,,,,,,,,,,,,,,,,,,,,,,,,,,,,,,,,,,,,,,,,,,,,,,,,,,,,,,,,,,,,,,,,,,,,,
