title:Psychopy_Cleo_1_2023-02-17T124926.201961, start timestamp:1676666966.115109, stop timestamp:1676667027.137483, headset type:EPOCX, headset serial:E2020A42, headset firmware:720, channels:125, sampling rate:eeg_128;pow_8, samples:7816      , version:2.1, 
Timestamp,OriginalTimestamp,EEG.Counter,EEG.Interpolated,EEG.AF3,EEG.F7,EEG.F3,EEG.FC5,EEG.T7,EEG.P7,EEG.O1,EEG.O2,EEG.P8,EEG.T8,EEG.FC6,EEG.F4,EEG.F8,EEG.AF4,EEG.RawCq,EEG.Battery,EEG.BatteryPercent,MarkerIndex,MarkerType,MarkerValueInt,EEG.MarkerHardware,CQ.AF3,CQ.F7,CQ.F3,CQ.FC5,CQ.T7,CQ.P7,CQ.O1,CQ.O2,CQ.P8,CQ.T8,CQ.FC6,CQ.F4,CQ.F8,CQ.AF4,CQ.Overall,EQ.SampleRateQuality,EQ.OVERALL,EQ.AF3,EQ.F7,EQ.F3,EQ.FC5,EQ.T7,EQ.P7,EQ.O1,EQ.O2,EQ.P8,EQ.T8,EQ.FC6,EQ.F4,EQ.F8,EQ.AF4,POW.AF3.Theta,POW.AF3.Alpha,POW.AF3.BetaL,POW.AF3.BetaH,POW.AF3.Gamma,POW.F7.Theta,POW.F7.Alpha,POW.F7.BetaL,POW.F7.BetaH,POW.F7.Gamma,POW.F3.Theta,POW.F3.Alpha,POW.F3.BetaL,POW.F3.BetaH,POW.F3.Gamma,POW.FC5.Theta,POW.FC5.Alpha,POW.FC5.BetaL,POW.FC5.BetaH,POW.FC5.Gamma,POW.T7.Theta,POW.T7.Alpha,POW.T7.BetaL,POW.T7.BetaH,POW.T7.Gamma,POW.P7.Theta,POW.P7.Alpha,POW.P7.BetaL,POW.P7.BetaH,POW.P7.Gamma,POW.O1.Theta,POW.O1.Alpha,POW.O1.BetaL,POW.O1.BetaH,POW.O1.Gamma,POW.O2.Theta,POW.O2.Alpha,POW.O2.BetaL,POW.O2.BetaH,POW.O2.Gamma,POW.P8.Theta,POW.P8.Alpha,POW.P8.BetaL,POW.P8.BetaH,POW.P8.Gamma,POW.T8.Theta,POW.T8.Alpha,POW.T8.BetaL,POW.T8.BetaH,POW.T8.Gamma,POW.FC6.Theta,POW.FC6.Alpha,POW.FC6.BetaL,POW.FC6.BetaH,POW.FC6.Gamma,POW.F4.Theta,POW.F4.Alpha,POW.F4.BetaL,POW.F4.BetaH,POW.F4.Gamma,POW.F8.Theta,POW.F8.Alpha,POW.F8.BetaL,POW.F8.BetaH,POW.F8.Gamma,POW.AF4.Theta,POW.AF4.Alpha,POW.AF4.BetaL,POW.AF4.BetaH,POW.AF4.Gamma
1676666966.115109,1676666966.115503,119.000000,0.000000,4313.717773,4278.077148,4299.743652,4330.128418,4321.538574,4301.538574,4291.410156,4302.436035,4295.512695,4296.538574,4462.820313,4482.948730,4412.051270,4411.410156,2803.000000,3.000000,72.000000,,,,0.000000,4.000000,4.000000,4.000000,2.000000,4.000000,4.000000,4.000000,4.000000,4.000000,4.000000,4.000000,4.000000,4.000000,4.000000,83.333336,,,,,,,,,,,,,,,,,4.861182,4.107898,0.915473,0.751451,0.180201,2.846232,3.221467,1.041590,0.515960,0.558611,4.965013,6.377752,1.910409,0.924938,0.310456,0.976557,0.543653,0.946777,1.207042,2.057632,2.613067,0.766022,0.328108,0.243696,0.114404,0.483751,1.336564,0.735134,0.258919,0.198705,0.756171,3.221175,2.025405,0.923666,0.628330,0.964005,2.817750,1.812602,0.545378,0.171965,1.017642,2.345500,1.364499,0.392333,0.155056,1.840963,2.571577,1.354124,0.437622,0.303290,1.514239,2.567087,0.856662,0.493504,0.485972,5.199906,8.430665,2.809070,0.907498,0.279564,3.180364,3.701825,1.123448,0.999019,0.290318,5.260272,7.001060,1.929764,0.829215,0.214457
1676666966.122917,1676666966.123411,120.000000,0.000000,4313.333496,4285.384766,4296.922852,4293.846191,4308.717773,4306.922852,4310.897461,4308.205078,4297.948730,4283.717773,4454.871582,4488.589844,4414.615234,4408.717773,2341.000000,3.000000,72.000000,,,,0.000000,4.000000,4.000000,4.000000,2.000000,4.000000,4.000000,4.000000,4.000000,4.000000,4.000000,4.000000,4.000000,4.000000,4.000000,83.333336,,,,,,,,,,,,,,,,,,,,,,,,,,,,,,,,,,,,,,,,,,,,,,,,,,,,,,,,,,,,,,,,,,,,,,,,,,,,,,,,,,,,,,
1676666966.130726,1676666966.131220,121.000000,0.000000,4301.153809,4272.948730,4287.179688,4289.102539,4308.589844,4302.436035,4313.205078,4307.948730,4303.461426,4285.897461,4451.538574,4483.205078,4408.589844,4407.179688,3112.000000,3.000000,72.000000,,,,0.000000,4.000000,4.000000,4.000000,2.000000,4.000000,4.000000,4.000000,4.000000,4.000000,4.000000,4.000000,4.000000,4.000000,4.000000,83.333336,,,,,,,,,,,,,,,,,,,,,,,,,,,,,,,,,,,,,,,,,,,,,,,,,,,,,,,,,,,,,,,,,,,,,,,,,,,,,,,,,,,,,,
1676666966.138534,1676666966.139128,122.000000,0.000000,4295.000000,4268.461426,4278.333496,4302.436035,4304.871582,4300.769043,4297.436035,4310.128418,4306.794922,4295.769043,4460.897461,4475.769043,4402.179688,4406.538574,2409.000000,3.000000,72.000000,,,,0.000000,4.000000,4.000000,4.000000,2.000000,4.000000,4.000000,4.000000,4.000000,4.000000,4.000000,4.000000,4.000000,4.000000,4.000000,83.333336,,,,,,,,,,,,,,,,,,,,,,,,,,,,,,,,,,,,,,,,,,,,,,,,,,,,,,,,,,,,,,,,,,,,,,,,,,,,,,,,,,,,,,
1676666966.146342,1676666966.146937,123.000000,0.000000,4297.436035,4271.025879,4276.153809,4293.461426,4293.717773,4304.871582,4291.282227,4307.436035,4307.179688,4286.153809,4455.000000,4468.717773,4398.589844,4393.333496,2803.000000,3.000000,72.000000,,,,0.000000,4.000000,4.000000,4.000000,2.000000,4.000000,4.000000,4.000000,4.000000,4.000000,4.000000,4.000000,4.000000,4.000000,4.000000,83.333336,,,,,,,,,,,,,,,,,,,,,,,,,,,,,,,,,,,,,,,,,,,,,,,,,,,,,,,,,,,,,,,,,,,,,,,,,,,,,,,,,,,,,,
1676666966.154151,1676666966.154845,124.000000,0.000000,4297.820313,4266.794922,4277.692383,4300.641113,4297.948730,4314.230957,4311.922852,4310.384766,4306.794922,4276.794922,4445.384766,4469.102539,4390.384766,4386.410156,2341.000000,3.000000,72.000000,,,,0.000000,4.000000,4.000000,4.000000,2.000000,4.000000,4.000000,4.000000,4.000000,4.000000,4.000000,4.000000,4.000000,4.000000,4.000000,83.333336,,,,,,,,,,,,,,,,,,,,,,,,,,,,,,,,,,,,,,,,,,,,,,,,,,,,,,,,,,,,,,,,,,,,,,,,,,,,,,,,,,,,,,
1676666966.161959,1676666966.162653,125.000000,0.000000,4294.358887,4262.820313,4276.282227,4313.333496,4305.256348,4315.769043,4316.666504,4315.128418,4301.666504,4278.974121,4447.051270,4470.897461,4379.743652,4395.512695,3112.000000,3.000000,72.000000,,,,0.000000,4.000000,4.000000,4.000000,2.000000,4.000000,4.000000,4.000000,4.000000,4.000000,4.000000,4.000000,4.000000,4.000000,4.000000,83.333336,,,,,,,,,,,,,,,,,,,,,,,,,,,,,,,,,,,,,,,,,,,,,,,,,,,,,,,,,,,,,,,,,,,,,,,,,,,,,,,,,,,,,,
1676666966.169768,1676666966.170362,126.000000,0.000000,4298.589844,4266.153809,4275.512695,4300.641113,4297.436035,4302.051270,4288.461426,4303.974121,4294.102539,4278.846191,4442.948730,4465.384766,4383.461426,4395.897461,2409.000000,3.000000,72.000000,,,,0.000000,4.000000,4.000000,4.000000,2.000000,4.000000,4.000000,4.000000,4.000000,4.000000,4.000000,4.000000,4.000000,4.000000,4.000000,83.333336,,,,,,,,,,,,,,,,,,,,,,,,,,,,,,,,,,,,,,,,,,,,,,,,,,,,,,,,,,,,,,,,,,,,,,,,,,,,,,,,,,,,,,
1676666966.177576,1676666966.178170,127.000000,0.000000,4311.922852,4275.641113,4287.179688,4287.051270,4288.846191,4289.615234,4266.282227,4292.051270,4296.153809,4283.077148,4447.179688,4469.615234,4400.128418,4396.282227,72.000000,3.000000,72.000000,,,,0.000000,4.000000,4.000000,4.000000,2.000000,4.000000,4.000000,4.000000,4.000000,4.000000,4.000000,4.000000,4.000000,4.000000,4.000000,83.333336,,,,,,,,,,,,,,,,,,,,,,,,,,,,,,,,,,,,,,,,,,,,,,,,,,,,,,,,,,,,,,,,,,,,,,,,,,,,,,,,,,,,,,
1676666966.185384,1676666966.185879,0.000000,0.000000,4323.461426,4279.871582,4308.589844,4299.743652,4293.846191,4292.436035,4272.692383,4296.538574,4298.205078,4292.179688,4473.974121,4498.077148,4412.563965,4420.641113,2496.000000,3.000000,72.000000,,,,0.000000,4.000000,4.000000,4.000000,4.000000,4.000000,4.000000,4.000000,4.000000,4.000000,4.000000,4.000000,4.000000,4.000000,4.000000,100.000000,,,,,,,,,,,,,,,,,,,,,,,,,,,,,,,,,,,,,,,,,,,,,,,,,,,,,,,,,,,,,,,,,,,,,,,,,,,,,,,,,,,,,,
1676666966.193193,1676666966.193687,1.000000,0.000000,4327.692383,4281.410156,4317.436035,4303.846191,4299.871582,4295.897461,4287.948730,4298.589844,4287.820313,4285.384766,4476.025879,4512.436035,4405.512695,4433.461426,1518.000000,3.000000,72.000000,,,,0.000000,4.000000,4.000000,4.000000,4.000000,4.000000,4.000000,4.000000,4.000000,4.000000,4.000000,4.000000,4.000000,4.000000,4.000000,100.000000,,,,,,,,,,,,,,,,,,,,,,,,,,,,,,,,,,,,,,,,,,,,,,,,,,,,,,,,,,,,,,,,,,,,,,,,,,,,,,,,,,,,,,
1676666966.201001,1676666966.201396,2.000000,0.000000,4326.025879,4284.615234,4311.922852,4288.205078,4296.922852,4297.692383,4296.282227,4292.692383,4279.871582,4276.025879,4457.948730,4497.948730,4400.128418,4419.615234,2237.000000,3.000000,72.000000,,,,0.000000,4.000000,4.000000,4.000000,4.000000,4.000000,4.000000,4.000000,4.000000,4.000000,4.000000,4.000000,4.000000,4.000000,4.000000,100.000000,,,,,,,,,,,,,,,,,,,,,,,,,,,,,,,,,,,,,,,,,,,,,,,,,,,,,,,,,,,,,,,,,,,,,,,,,,,,,,,,,,,,,,
1676666966.208809,1676666966.209204,3.000000,0.000000,4318.205078,4273.461426,4307.820313,4286.153809,4296.153809,4310.897461,4294.743652,4292.436035,4284.102539,4280.512695,4452.820313,4487.436035,4410.384766,4404.871582,2358.000000,3.000000,72.000000,,,,0.000000,4.000000,4.000000,4.000000,4.000000,4.000000,4.000000,4.000000,4.000000,4.000000,4.000000,4.000000,4.000000,4.000000,4.000000,100.000000,,,,,,,,,,,,,,,,,,,,,,,,,,,,,,,,,,,,,,,,,,,,,,,,,,,,,,,,,,,,,,,,,,,,,,,,,,,,,,,,,,,,,,
1676666966.216617,1676666966.216913,4.000000,0.000000,4308.974121,4259.871582,4306.922852,4302.692383,4302.436035,4318.974121,4293.589844,4295.641113,4289.487305,4277.563965,4447.948730,4486.282227,4401.153809,4396.666504,2164.000000,3.000000,72.000000,,,,0.000000,4.000000,4.000000,4.000000,4.000000,4.000000,4.000000,4.000000,4.000000,4.000000,4.000000,4.000000,4.000000,4.000000,4.000000,100.000000,,,,,,,,,,,,,,,,,,,,,,,,,,,,,,,,,,,,,,,,,,,,,,,,,,,,,,,,,,,,,,,,,,,,,,,,,,,,,,,,,,,,,,
1676666966.224426,1676666966.224721,5.000000,0.000000,4306.666504,4267.948730,4310.769043,4316.153809,4302.820313,4314.615234,4310.769043,4305.384766,4295.769043,4266.282227,4447.307617,4493.333496,4373.717773,4395.384766,2254.000000,3.000000,72.000000,,,,0.000000,4.000000,4.000000,4.000000,4.000000,4.000000,4.000000,4.000000,4.000000,4.000000,4.000000,4.000000,4.000000,4.000000,4.000000,100.000000,,,,,,,,,,,,,,,,,,,,,,,,,,,,,,,,,,,,,,,,,,,,,,,,,,,,,,,,,,,,,,,,,,,,,,,,,,,,,,,,,,,,,,
1676666966.232234,1676666966.232430,6.000000,0.000000,4305.000000,4272.179688,4310.641113,4303.589844,4294.871582,4313.333496,4320.384766,4316.410156,4305.769043,4269.871582,4451.538574,4494.871582,4371.922852,4393.974121,2197.000000,3.000000,72.000000,,,,0.000000,4.000000,4.000000,4.000000,4.000000,4.000000,4.000000,4.000000,4.000000,4.000000,4.000000,4.000000,4.000000,4.000000,4.000000,100.000000,,,,,,,,,,,,,,,,,,,,,,,,,,,,,,,,,,,,,,,,,,,,,,,,,,,,,,,,,,,,,,,,,,,,,,,,,,,,,,,,,,,,,,
1676666966.240043,1676666966.240238,7.000000,0.000000,4296.922852,4261.153809,4297.948730,4293.333496,4291.794922,4310.128418,4299.487305,4309.102539,4305.128418,4280.769043,4455.000000,4477.307617,4386.153809,4383.461426,2304.000000,3.000000,72.000000,,,,0.000000,4.000000,4.000000,4.000000,4.000000,4.000000,4.000000,4.000000,4.000000,4.000000,4.000000,4.000000,4.000000,4.000000,4.000000,100.000000,,,,,,,,,,,,,,,,,4.568640,3.697867,0.933039,0.701956,0.187315,2.600225,2.794950,1.007624,0.486713,0.509217,5.088639,5.781583,1.892120,0.872804,0.296472,0.996499,0.481346,1.131978,1.198923,2.050588,2.681186,0.788954,0.310384,0.233854,0.115944,0.573156,1.263302,0.617553,0.242509,0.214308,1.065382,2.847237,1.725098,0.850794,0.619371,1.028894,2.623934,1.612342,0.491122,0.170900,1.031045,2.124595,1.222000,0.374741,0.159506,1.829554,2.241360,1.214216,0.416456,0.294608,1.493319,2.302278,0.837341,0.502155,0.502020,5.455533,8.163984,2.844368,0.867363,0.283127,3.390090,3.362677,1.043882,1.020372,0.276557,5.361013,6.463570,2.053871,0.774733,0.226804
1676666966.247851,1676666966.247947,8.000000,0.000000,4291.666504,4270.000000,4289.615234,4290.256348,4294.358887,4305.769043,4282.820313,4298.205078,4298.461426,4277.948730,4457.307617,4463.589844,4385.128418,4375.000000,2296.000000,3.000000,72.000000,,,,0.000000,4.000000,4.000000,4.000000,4.000000,4.000000,4.000000,4.000000,4.000000,4.000000,4.000000,4.000000,4.000000,4.000000,4.000000,100.000000,,,,,,,,,,,,,,,,,,,,,,,,,,,,,,,,,,,,,,,,,,,,,,,,,,,,,,,,,,,,,,,,,,,,,,,,,,,,,,,,,,,,,,
1676666966.255659,1676666966.255755,9.000000,0.000000,4301.538574,4283.589844,4297.563965,4280.384766,4295.128418,4307.436035,4288.077148,4298.974121,4296.794922,4267.051270,4448.589844,4472.051270,4376.282227,4382.436035,2239.000000,3.000000,72.000000,,,,0.000000,4.000000,4.000000,4.000000,4.000000,4.000000,4.000000,4.000000,4.000000,4.000000,4.000000,4.000000,4.000000,4.000000,4.000000,100.000000,,,,,,,,,,,,,,,,,,,,,,,,,,,,,,,,,,,,,,,,,,,,,,,,,,,,,,,,,,,,,,,,,,,,,,,,,,,,,,,,,,,,,,
1676666966.263468,1676666966.263464,10.000000,0.000000,4312.563965,4279.871582,4308.205078,4293.717773,4295.769043,4307.436035,4296.410156,4298.846191,4294.743652,4260.641113,4431.538574,4486.410156,4374.358887,4394.615234,2343.000000,3.000000,72.000000,,,,0.000000,4.000000,4.000000,4.000000,4.000000,4.000000,4.000000,4.000000,4.000000,4.000000,4.000000,4.000000,4.000000,4.000000,4.000000,100.000000,,,,,,,,,,,,,,,,,,,,,,,,,,,,,,,,,,,,,,,,,,,,,,,,,,,,,,,,,,,,,,,,,,,,,,,,,,,,,,,,,,,,,,
1676666966.271276,1676666966.271372,11.000000,0.000000,4313.333496,4285.512695,4312.692383,4316.794922,4297.948730,4303.974121,4294.102539,4294.487305,4292.051270,4267.948730,4448.461426,4491.282227,4384.230957,4402.179688,2798.000000,3.000000,72.000000,,,,0.000000,4.000000,4.000000,4.000000,4.000000,4.000000,4.000000,4.000000,4.000000,4.000000,4.000000,4.000000,4.000000,4.000000,4.000000,100.000000,,,,,,,,,,,,,,,,,,,,,,,,,,,,,,,,,,,,,,,,,,,,,,,,,,,,,,,,,,,,,,,,,,,,,,,,,,,,,,,,,,,,,,
1676666966.279085,1676666966.279181,12.000000,0.000000,4312.179688,4297.436035,4313.205078,4310.000000,4298.333496,4306.922852,4287.051270,4294.230957,4286.794922,4278.333496,4477.179688,4491.538574,4395.256348,4406.282227,2346.000000,3.000000,72.000000,,,,0.000000,4.000000,4.000000,4.000000,4.000000,4.000000,4.000000,4.000000,4.000000,4.000000,4.000000,4.000000,4.000000,4.000000,4.000000,100.000000,,,,,,,,,,,,,,,,,,,,,,,,,,,,,,,,,,,,,,,,,,,,,,,,,,,,,,,,,,,,,,,,,,,,,,,,,,,,,,,,,,,,,,
1676666966.286893,1676666966.286989,13.000000,0.000000,4313.846191,4296.025879,4313.333496,4300.897461,4296.666504,4310.000000,4281.922852,4292.307617,4281.922852,4273.589844,4460.897461,4489.871582,4390.384766,4404.871582,3117.000000,3.000000,72.000000,,,,0.000000,4.000000,4.000000,4.000000,4.000000,4.000000,4.000000,4.000000,4.000000,4.000000,4.000000,4.000000,4.000000,4.000000,4.000000,100.000000,,,,,,,,,,,,,,,,,,,,,,,,,,,,,,,,,,,,,,,,,,,,,,,,,,,,,,,,,,,,,,,,,,,,,,,,,,,,,,,,,,,,,,
1676666966.294701,1676666966.294698,14.000000,0.000000,4314.615234,4291.410156,4314.358887,4316.410156,4295.769043,4308.077148,4292.436035,4292.307617,4285.641113,4264.487305,4446.153809,4490.000000,4378.974121,4402.948730,2343.000000,3.000000,72.000000,,,,0.000000,4.000000,4.000000,4.000000,4.000000,4.000000,4.000000,4.000000,4.000000,4.000000,4.000000,4.000000,4.000000,4.000000,4.000000,100.000000,,,,,,,,,,,,,,,,,,,,,,,,,,,,,,,,,,,,,,,,,,,,,,,,,,,,,,,,,,,,,,,,,,,,,,,,,,,,,,,,,,,,,,
1676666966.302510,1676666966.302606,15.000000,0.000000,4305.897461,4286.410156,4312.436035,4307.563965,4294.743652,4311.153809,4309.871582,4299.487305,4292.948730,4265.897461,4460.256348,4490.128418,4378.461426,4399.358887,2798.000000,3.000000,72.000000,,,,0.000000,4.000000,4.000000,4.000000,4.000000,4.000000,4.000000,4.000000,4.000000,4.000000,4.000000,4.000000,4.000000,4.000000,4.000000,100.000000,,,,,,,,,,,,,,,,,,,,,,,,,,,,,,,,,,,,,,,,,,,,,,,,,,,,,,,,,,,,,,,,,,,,,,,,,,,,,,,,,,,,,,
1676666966.310318,1676666966.310415,16.000000,0.000000,4296.666504,4278.589844,4311.025879,4288.077148,4293.974121,4319.743652,4313.589844,4307.179688,4297.307617,4272.051270,4462.563965,4489.358887,4375.128418,4393.589844,0.000000,3.000000,72.000000,,,,0.000000,4.000000,4.000000,4.000000,4.000000,4.000000,4.000000,4.000000,4.000000,4.000000,4.000000,4.000000,4.000000,4.000000,4.000000,100.000000,,,,,,,,,,,,,,,,,,,,,,,,,,,,,,,,,,,,,,,,,,,,,,,,,,,,,,,,,,,,,,,,,,,,,,,,,,,,,,,,,,,,,,
1676666966.318126,1676666966.318323,17.000000,0.000000,4296.282227,4278.333496,4310.769043,4300.512695,4296.922852,4324.102539,4311.666504,4312.692383,4306.794922,4275.256348,4453.589844,4494.743652,4366.410156,4396.025879,0.000000,3.000000,72.000000,,,,0.000000,4.000000,4.000000,4.000000,4.000000,4.000000,4.000000,4.000000,4.000000,4.000000,4.000000,4.000000,4.000000,4.000000,4.000000,100.000000,,,,,,,,,,,,,,,,,,,,,,,,,,,,,,,,,,,,,,,,,,,,,,,,,,,,,,,,,,,,,,,,,,,,,,,,,,,,,,,,,,,,,,
1676666966.325935,1676666966.326131,18.000000,0.000000,4295.641113,4278.846191,4302.820313,4308.974121,4296.794922,4316.538574,4312.820313,4314.102539,4314.358887,4278.461426,4457.436035,4490.897461,4373.974121,4396.153809,0.000000,3.000000,72.000000,,,,0.000000,4.000000,4.000000,4.000000,4.000000,4.000000,4.000000,4.000000,4.000000,4.000000,4.000000,4.000000,4.000000,4.000000,4.000000,100.000000,,,,,,,,,,,,,,,,,,,,,,,,,,,,,,,,,,,,,,,,,,,,,,,,,,,,,,,,,,,,,,,,,,,,,,,,,,,,,,,,,,,,,,
1676666966.333743,1676666966.334040,19.000000,0.000000,4292.820313,4276.538574,4300.128418,4296.025879,4290.641113,4308.205078,4310.384766,4311.282227,4312.820313,4285.384766,4462.948730,4482.179688,4382.692383,4389.358887,0.000000,3.000000,72.000000,,,,0.000000,4.000000,4.000000,4.000000,4.000000,4.000000,4.000000,4.000000,4.000000,4.000000,4.000000,4.000000,4.000000,4.000000,4.000000,100.000000,,,,,,,,,,,,,,,,,,,,,,,,,,,,,,,,,,,,,,,,,,,,,,,,,,,,,,,,,,,,,,,,,,,,,,,,,,,,,,,,,,,,,,
1676666966.341551,1676666966.341848,20.000000,0.000000,4297.692383,4284.487305,4306.410156,4297.563965,4288.205078,4306.282227,4299.615234,4308.077148,4312.051270,4288.717773,4459.102539,4486.794922,4375.512695,4390.384766,0.000000,3.000000,72.000000,,,,0.000000,4.000000,4.000000,4.000000,4.000000,4.000000,4.000000,4.000000,4.000000,4.000000,4.000000,4.000000,4.000000,4.000000,4.000000,100.000000,,,,,,,,,,,,,,,,,,,,,,,,,,,,,,,,,,,,,,,,,,,,,,,,,,,,,,,,,,,,,,,,,,,,,,,,,,,,,,,,,,,,,,
1676666966.349360,1676666966.349757,21.000000,0.000000,4308.846191,4299.743652,4313.461426,4318.846191,4294.743652,4309.487305,4298.974121,4308.846191,4308.589844,4283.589844,4458.974121,4494.358887,4375.897461,4400.000000,0.000000,3.000000,72.000000,,,,0.000000,4.000000,4.000000,4.000000,4.000000,4.000000,4.000000,4.000000,4.000000,4.000000,4.000000,4.000000,4.000000,4.000000,4.000000,100.000000,,,,,,,,,,,,,,,,,,,,,,,,,,,,,,,,,,,,,,,,,,,,,,,,,,,,,,,,,,,,,,,,,,,,,,,,,,,,,,,,,,,,,,
1676666966.357168,1676666966.357565,22.000000,0.000000,4313.077148,4310.000000,4321.282227,4313.589844,4298.974121,4307.307617,4302.051270,4306.666504,4299.487305,4278.589844,4461.282227,4492.948730,4385.384766,4401.794922,0.000000,3.000000,72.000000,,,,0.000000,4.000000,4.000000,4.000000,4.000000,4.000000,4.000000,4.000000,4.000000,4.000000,4.000000,4.000000,4.000000,4.000000,4.000000,100.000000,,,,,,,,,,,,,,,,,,,,,,,,,,,,,,,,,,,,,,,,,,,,,,,,,,,,,,,,,,,,,,,,,,,,,,,,,,,,,,,,,,,,,,
1676666966.364977,1676666966.365473,23.000000,0.000000,4309.102539,4303.589844,4323.077148,4296.410156,4294.487305,4299.102539,4287.436035,4296.153809,4293.205078,4279.358887,4458.974121,4487.820313,4372.948730,4392.820313,0.000000,3.000000,72.000000,,,,0.000000,4.000000,4.000000,4.000000,4.000000,4.000000,4.000000,4.000000,4.000000,4.000000,4.000000,4.000000,4.000000,4.000000,4.000000,100.000000,,,,,,,,,,,,,,,,,4.118186,3.276408,0.969323,0.649174,0.198256,2.312327,2.378133,0.978813,0.429684,0.453355,5.055552,5.063565,1.816911,0.805146,0.277863,0.930302,0.474466,1.321589,1.093964,1.990079,2.433927,0.813557,0.284418,0.208351,0.121781,0.660327,1.304713,0.542772,0.214614,0.223716,1.399398,2.743297,1.436884,0.747205,0.613064,1.082786,2.378701,1.286631,0.429873,0.172369,0.967143,1.825794,0.993324,0.352053,0.157629,1.651562,1.828188,0.993508,0.388969,0.289172,1.444288,1.980347,0.761374,0.503056,0.530788,5.456506,7.477550,2.643172,0.788554,0.287741,3.293597,2.916569,0.943525,0.989818,0.275354,5.179163,5.708761,2.077920,0.684545,0.235627
1676666966.372785,1676666966.373282,24.000000,0.000000,4313.589844,4300.769043,4322.307617,4316.282227,4298.589844,4302.051270,4281.538574,4289.743652,4294.230957,4281.153809,4455.384766,4491.794922,4368.846191,4397.051270,0.000000,3.000000,72.000000,,,,0.000000,4.000000,4.000000,4.000000,4.000000,4.000000,4.000000,4.000000,4.000000,4.000000,4.000000,4.000000,4.000000,4.000000,4.000000,100.000000,,,,,,,,,,,,,,,,,,,,,,,,,,,,,,,,,,,,,,,,,,,,,,,,,,,,,,,,,,,,,,,,,,,,,,,,,,,,,,,,,,,,,,
1676666966.380593,1676666966.380990,25.000000,0.000000,4325.897461,4320.256348,4330.256348,4331.794922,4308.846191,4311.410156,4296.666504,4296.922852,4295.897461,4286.153809,4459.743652,4500.769043,4389.102539,4410.128418,0.000000,3.000000,72.000000,,,,0.000000,4.000000,4.000000,4.000000,4.000000,4.000000,4.000000,4.000000,4.000000,4.000000,4.000000,4.000000,4.000000,4.000000,4.000000,100.000000,,,,,,,,,,,,,,,,,,,,,,,,,,,,,,,,,,,,,,,,,,,,,,,,,,,,,,,,,,,,,,,,,,,,,,,,,,,,,,,,,,,,,,
1676666966.388402,1676666966.388799,26.000000,0.000000,4321.282227,4321.025879,4334.615234,4312.820313,4302.563965,4309.615234,4304.230957,4303.717773,4296.538574,4287.307617,4462.820313,4498.589844,4387.692383,4402.948730,0.000000,3.000000,72.000000,,,,0.000000,4.000000,4.000000,4.000000,4.000000,4.000000,4.000000,4.000000,4.000000,4.000000,4.000000,4.000000,4.000000,4.000000,4.000000,100.000000,,,,,,,,,,,,,,,,,,,,,,,,,,,,,,,,,,,,,,,,,,,,,,,,,,,,,,,,,,,,,,,,,,,,,,,,,,,,,,,,,,,,,,
1676666966.396210,1676666966.396507,27.000000,0.000000,4309.487305,4295.769043,4323.205078,4311.282227,4290.897461,4305.000000,4304.358887,4305.384766,4302.307617,4280.897461,4457.948730,4490.641113,4372.051270,4389.102539,0.000000,3.000000,72.000000,,,,0.000000,4.000000,4.000000,4.000000,4.000000,4.000000,4.000000,4.000000,4.000000,4.000000,4.000000,4.000000,4.000000,4.000000,4.000000,100.000000,,,,,,,,,,,,,,,,,,,,,,,,,,,,,,,,,,,,,,,,,,,,,,,,,,,,,,,,,,,,,,,,,,,,,,,,,,,,,,,,,,,,,,
1676666966.404018,1676666966.404316,28.000000,0.000000,4307.692383,4289.230957,4314.358887,4320.256348,4293.205078,4305.128418,4307.948730,4313.717773,4312.307617,4278.077148,4456.410156,4489.743652,4366.538574,4391.282227,0.000000,3.000000,72.000000,,,,0.000000,4.000000,4.000000,4.000000,4.000000,4.000000,4.000000,4.000000,4.000000,4.000000,4.000000,4.000000,4.000000,4.000000,4.000000,100.000000,,,,,,,,,,,,,,,,,,,,,,,,,,,,,,,,,,,,,,,,,,,,,,,,,,,,,,,,,,,,,,,,,,,,,,,,,,,,,,,,,,,,,,
1676666966.411827,1676666966.412024,29.000000,0.000000,4302.051270,4299.230957,4312.692383,4306.282227,4295.256348,4299.102539,4304.871582,4318.205078,4313.461426,4281.794922,4461.153809,4486.153809,4365.128418,4393.205078,0.000000,3.000000,72.000000,,,,0.000000,4.000000,4.000000,4.000000,4.000000,4.000000,4.000000,4.000000,4.000000,4.000000,4.000000,4.000000,4.000000,4.000000,4.000000,100.000000,,,,,,,,,,,,,,,,,,,,,,,,,,,,,,,,,,,,,,,,,,,,,,,,,,,,,,,,,,,,,,,,,,,,,,,,,,,,,,,,,,,,,,
1676666966.419635,1676666966.419833,30.000000,0.000000,4296.794922,4296.794922,4308.461426,4303.846191,4291.153809,4294.102539,4294.743652,4306.794922,4304.358887,4281.410156,4453.333496,4476.410156,4363.589844,4382.692383,0.000000,3.000000,72.000000,,,,0.000000,4.000000,4.000000,4.000000,4.000000,4.000000,4.000000,4.000000,4.000000,4.000000,4.000000,4.000000,4.000000,4.000000,4.000000,100.000000,,,,,,,,,,,,,,,,,,,,,,,,,,,,,,,,,,,,,,,,,,,,,,,,,,,,,,,,,,,,,,,,,,,,,,,,,,,,,,,,,,,,,,
1676666966.427443,1676666966.427541,31.000000,0.000000,4303.974121,4294.102539,4308.205078,4305.000000,4294.871582,4295.769043,4285.641113,4293.589844,4295.000000,4270.641113,4436.538574,4468.589844,4362.692383,4377.563965,0.000000,3.000000,72.000000,,,,0.000000,4.000000,4.000000,4.000000,4.000000,4.000000,4.000000,4.000000,4.000000,4.000000,4.000000,4.000000,4.000000,4.000000,4.000000,100.000000,,,,,,,,,,,,,,,,,,,,,,,,,,,,,,,,,,,,,,,,,,,,,,,,,,,,,,,,,,,,,,,,,,,,,,,,,,,,,,,,,,,,,,
1676666966.435252,1676666966.435350,32.000000,0.000000,4302.051270,4297.563965,4309.102539,4298.974121,4296.922852,4293.205078,4283.717773,4287.820313,4284.615234,4259.102539,4433.846191,4461.666504,4353.717773,4374.743652,0.000000,3.000000,72.000000,,,,0.000000,4.000000,4.000000,4.000000,4.000000,4.000000,4.000000,4.000000,4.000000,4.000000,4.000000,4.000000,4.000000,4.000000,4.000000,100.000000,,,,,,,,,,,,,,,,,,,,,,,,,,,,,,,,,,,,,,,,,,,,,,,,,,,,,,,,,,,,,,,,,,,,,,,,,,,,,,,,,,,,,,
1676666966.443060,1676666966.443058,33.000000,0.000000,4293.717773,4298.333496,4308.974121,4315.641113,4294.102539,4298.589844,4293.333496,4286.025879,4278.077148,4261.538574,4448.077148,4461.666504,4349.743652,4369.102539,0.000000,3.000000,72.000000,,,,0.000000,4.000000,4.000000,4.000000,4.000000,4.000000,4.000000,4.000000,4.000000,4.000000,4.000000,4.000000,4.000000,4.000000,4.000000,100.000000,,,,,,,,,,,,,,,,,,,,,,,,,,,,,,,,,,,,,,,,,,,,,,,,,,,,,,,,,,,,,,,,,,,,,,,,,,,,,,,,,,,,,,
1676666966.450868,1676666966.450967,34.000000,0.000000,4305.384766,4303.846191,4310.641113,4325.641113,4301.922852,4304.743652,4291.025879,4289.358887,4282.820313,4270.512695,4458.974121,4476.922852,4358.333496,4380.000000,0.000000,3.000000,72.000000,,,,0.000000,4.000000,4.000000,4.000000,4.000000,4.000000,4.000000,4.000000,4.000000,4.000000,4.000000,4.000000,4.000000,4.000000,4.000000,100.000000,,,,,,,,,,,,,,,,,,,,,,,,,,,,,,,,,,,,,,,,,,,,,,,,,,,,,,,,,,,,,,,,,,,,,,,,,,,,,,,,,,,,,,
1676666966.458677,1676666966.458775,35.000000,0.000000,4312.051270,4306.666504,4311.025879,4310.384766,4309.743652,4297.820313,4273.589844,4293.974121,4290.641113,4274.102539,4457.563965,4483.717773,4362.179688,4396.410156,0.000000,3.000000,72.000000,,,,0.000000,4.000000,4.000000,4.000000,4.000000,4.000000,4.000000,4.000000,4.000000,4.000000,4.000000,4.000000,4.000000,4.000000,4.000000,100.000000,,,,,,,,,,,,,,,,,,,,,,,,,,,,,,,,,,,,,,,,,,,,,,,,,,,,,,,,,,,,,,,,,,,,,,,,,,,,,,,,,,,,,,
1676666966.466485,1676666966.466683,36.000000,0.000000,4302.179688,4301.666504,4313.333496,4315.256348,4304.102539,4295.897461,4281.538574,4294.743652,4294.230957,4277.820313,4457.307617,4479.743652,4365.641113,4394.743652,0.000000,3.000000,72.000000,,,,0.000000,4.000000,4.000000,4.000000,4.000000,4.000000,4.000000,4.000000,4.000000,4.000000,4.000000,4.000000,4.000000,4.000000,4.000000,100.000000,,,,,,,,,,,,,,,,,,,,,,,,,,,,,,,,,,,,,,,,,,,,,,,,,,,,,,,,,,,,,,,,,,,,,,,,,,,,,,,,,,,,,,
1676666966.474294,1676666966.474492,37.000000,0.000000,4293.461426,4292.563965,4312.436035,4327.179688,4297.179688,4306.282227,4302.307617,4297.948730,4298.333496,4281.538574,4458.589844,4481.025879,4366.025879,4385.512695,0.000000,3.000000,72.000000,,,,0.000000,4.000000,4.000000,4.000000,4.000000,4.000000,4.000000,4.000000,4.000000,4.000000,4.000000,4.000000,4.000000,4.000000,4.000000,100.000000,,,,,,,,,,,,,,,,,,,,,,,,,,,,,,,,,,,,,,,,,,,,,,,,,,,,,,,,,,,,,,,,,,,,,,,,,,,,,,,,,,,,,,
1676666966.482102,1676666966.482400,38.000000,0.000000,4285.256348,4284.230957,4301.410156,4304.487305,4298.461426,4310.128418,4301.410156,4305.256348,4300.512695,4278.077148,4449.487305,4480.384766,4361.282227,4380.897461,0.000000,3.000000,72.000000,,,,0.000000,4.000000,4.000000,4.000000,4.000000,4.000000,4.000000,4.000000,4.000000,4.000000,4.000000,4.000000,4.000000,4.000000,4.000000,100.000000,,,,,,,,,,,,,,,,,,,,,,,,,,,,,,,,,,,,,,,,,,,,,,,,,,,,,,,,,,,,,,,,,,,,,,,,,,,,,,,,,,,,,,
1676666966.489910,1676666966.490209,39.000000,0.000000,4274.871582,4282.307617,4293.974121,4287.051270,4300.769043,4308.461426,4301.538574,4311.282227,4298.077148,4269.487305,4438.974121,4471.794922,4356.538574,4376.282227,0.000000,3.000000,72.000000,,,,0.000000,4.000000,4.000000,4.000000,4.000000,4.000000,4.000000,4.000000,4.000000,4.000000,4.000000,4.000000,4.000000,4.000000,4.000000,100.000000,1.000000,83.333336,4.000000,4.000000,4.000000,2.000000,4.000000,4.000000,4.000000,4.000000,4.000000,4.000000,4.000000,4.000000,4.000000,4.000000,3.523662,3.130208,1.060675,0.604908,0.208780,2.015660,2.267603,1.008813,0.358622,0.412563,4.762244,4.580148,1.722012,0.732205,0.256534,0.802687,0.551104,1.496199,0.941713,1.904012,2.015130,0.859777,0.255039,0.179440,0.131517,0.746166,1.444835,0.513157,0.187027,0.225714,1.687945,2.989053,1.219490,0.645866,0.614050,1.118854,2.164423,0.927101,0.382484,0.176706,0.852073,1.518371,0.751936,0.329919,0.148249,1.356333,1.412537,0.759886,0.367282,0.290201,1.374389,1.665569,0.657739,0.506923,0.571256,5.202359,6.607079,2.308704,0.705441,0.294376,2.898715,2.585275,0.905863,0.914356,0.292738,4.736207,5.084454,2.046028,0.603377,0.240632
1676666966.497719,1676666966.498117,40.000000,0.000000,4268.333496,4279.230957,4294.871582,4300.128418,4296.538574,4309.743652,4312.179688,4312.307617,4300.897461,4262.436035,4441.922852,4465.000000,4346.153809,4370.641113,0.000000,3.000000,72.000000,,,,0.000000,4.000000,4.000000,4.000000,4.000000,4.000000,4.000000,4.000000,4.000000,4.000000,4.000000,4.000000,4.000000,4.000000,4.000000,100.000000,,,,,,,,,,,,,,,,,,,,,,,,,,,,,,,,,,,,,,,,,,,,,,,,,,,,,,,,,,,,,,,,,,,,,,,,,,,,,,,,,,,,,,
1676666966.505527,1676666966.505925,41.000000,0.000000,4270.128418,4276.410156,4290.128418,4313.974121,4297.563965,4307.563965,4306.538574,4305.769043,4303.077148,4266.410156,4444.615234,4461.666504,4343.589844,4370.000000,0.000000,3.000000,72.000000,,,,0.000000,4.000000,4.000000,4.000000,4.000000,4.000000,4.000000,4.000000,4.000000,4.000000,4.000000,4.000000,4.000000,4.000000,4.000000,100.000000,,,,,,,,,,,,,,,,,,,,,,,,,,,,,,,,,,,,,,,,,,,,,,,,,,,,,,,,,,,,,,,,,,,,,,,,,,,,,,,,,,,,,,
1676666966.513335,1676666966.513834,42.000000,0.000000,4276.282227,4281.922852,4287.563965,4310.256348,4304.871582,4301.922852,4291.794922,4297.563965,4297.820313,4271.153809,4440.769043,4463.974121,4360.128418,4374.102539,0.000000,3.000000,72.000000,,,,0.000000,4.000000,4.000000,4.000000,4.000000,4.000000,4.000000,4.000000,4.000000,4.000000,4.000000,4.000000,4.000000,4.000000,4.000000,100.000000,,,,,,,,,,,,,,,,,,,,,,,,,,,,,,,,,,,,,,,,,,,,,,,,,,,,,,,,,,,,,,,,,,,,,,,,,,,,,,,,,,,,,,
1676666966.521144,1676666966.521642,43.000000,0.000000,4286.410156,4288.461426,4296.410156,4310.641113,4303.077148,4297.820313,4290.000000,4297.051270,4296.025879,4265.897461,4444.615234,4467.692383,4367.820313,4380.256348,0.000000,3.000000,72.000000,,,,0.000000,4.000000,4.000000,4.000000,4.000000,4.000000,4.000000,4.000000,4.000000,4.000000,4.000000,4.000000,4.000000,4.000000,4.000000,100.000000,,,,,,,,,,,,,,,,,,,,,,,,,,,,,,,,,,,,,,,,,,,,,,,,,,,,,,,,,,,,,,,,,,,,,,,,,,,,,,,,,,,,,,
1676666966.528952,1676666966.529551,44.000000,0.000000,4295.000000,4289.102539,4299.230957,4315.384766,4297.820313,4293.717773,4284.487305,4295.128418,4299.615234,4270.384766,4447.948730,4464.871582,4357.563965,4384.230957,0.000000,3.000000,72.000000,,,,0.000000,4.000000,4.000000,4.000000,4.000000,4.000000,4.000000,4.000000,4.000000,4.000000,4.000000,4.000000,4.000000,4.000000,4.000000,100.000000,,,,,,,,,,,,,,,,,,,,,,,,,,,,,,,,,,,,,,,,,,,,,,,,,,,,,,,,,,,,,,,,,,,,,,,,,,,,,,,,,,,,,,
1676666966.536760,1676666966.537359,45.000000,0.000000,4299.102539,4291.666504,4299.871582,4305.897461,4305.641113,4298.974121,4281.410156,4290.769043,4297.948730,4279.743652,4441.922852,4463.461426,4362.436035,4384.230957,0.000000,3.000000,72.000000,,,,0.000000,4.000000,4.000000,4.000000,4.000000,4.000000,4.000000,4.000000,4.000000,4.000000,4.000000,4.000000,4.000000,4.000000,4.000000,100.000000,,,,,,,,,,,,,,,,,,,,,,,,,,,,,,,,,,,,,,,,,,,,,,,,,,,,,,,,,,,,,,,,,,,,,,,,,,,,,,,,,,,,,,
1676666966.544569,1676666966.545267,46.000000,0.000000,4297.948730,4295.512695,4306.153809,4308.205078,4314.615234,4303.333496,4288.846191,4291.282227,4293.846191,4272.179688,4438.974121,4466.922852,4367.051270,4383.589844,0.000000,3.000000,72.000000,,,,0.000000,4.000000,4.000000,4.000000,4.000000,4.000000,4.000000,4.000000,4.000000,4.000000,4.000000,4.000000,4.000000,4.000000,4.000000,100.000000,,,,,,,,,,,,,,,,,,,,,,,,,,,,,,,,,,,,,,,,,,,,,,,,,,,,,,,,,,,,,,,,,,,,,,,,,,,,,,,,,,,,,,
1676666966.552377,1676666966.553076,47.000000,0.000000,4294.358887,4295.769043,4307.179688,4320.000000,4310.128418,4299.102539,4302.051270,4295.897461,4293.333496,4265.897461,4444.487305,4470.128418,4356.410156,4382.436035,0.000000,3.000000,72.000000,,,,0.000000,4.000000,4.000000,4.000000,4.000000,4.000000,4.000000,4.000000,4.000000,4.000000,4.000000,4.000000,4.000000,4.000000,4.000000,100.000000,,,,,,,,,,,,,,,,,,,,,,,,,,,,,,,,,,,,,,,,,,,,,,,,,,,,,,,,,,,,,,,,,,,,,,,,,,,,,,,,,,,,,,
1676666966.560186,1676666966.560784,48.000000,0.000000,4298.717773,4298.974121,4304.743652,4316.025879,4309.615234,4302.692383,4317.051270,4301.410156,4292.563965,4273.717773,4448.205078,4470.769043,4360.384766,4384.102539,0.000000,3.000000,72.000000,,,,0.000000,4.000000,4.000000,4.000000,4.000000,4.000000,4.000000,4.000000,4.000000,4.000000,4.000000,4.000000,4.000000,4.000000,4.000000,100.000000,,,,,,,,,,,,,,,,,,,,,,,,,,,,,,,,,,,,,,,,,,,,,,,,,,,,,,,,,,,,,,,,,,,,,,,,,,,,,,,,,,,,,,
1676666966.567994,1676666966.568693,49.000000,0.000000,4297.307617,4296.922852,4299.871582,4301.025879,4311.666504,4307.820313,4310.641113,4301.153809,4292.051270,4272.948730,4444.487305,4464.871582,4369.743652,4383.333496,0.000000,3.000000,72.000000,,,,0.000000,4.000000,4.000000,4.000000,4.000000,4.000000,4.000000,4.000000,4.000000,4.000000,4.000000,4.000000,4.000000,4.000000,4.000000,100.000000,,,,,,,,,,,,,,,,,,,,,,,,,,,,,,,,,,,,,,,,,,,,,,,,,,,,,,,,,,,,,,,,,,,,,,,,,,,,,,,,,,,,,,
1676666966.575802,1676666966.576501,50.000000,0.000000,4285.641113,4286.538574,4290.769043,4292.820313,4302.436035,4299.230957,4287.563965,4295.256348,4293.333496,4263.461426,4442.436035,4454.615234,4361.410156,4373.333496,0.000000,3.000000,72.000000,,,,0.000000,4.000000,4.000000,4.000000,4.000000,4.000000,4.000000,4.000000,4.000000,4.000000,4.000000,4.000000,4.000000,4.000000,4.000000,100.000000,,,,,,,,,,,,,,,,,,,,,,,,,,,,,,,,,,,,,,,,,,,,,,,,,,,,,,,,,,,,,,,,,,,,,,,,,,,,,,,,,,,,,,
1676666966.583611,1676666966.584410,51.000000,0.000000,4281.538574,4279.871582,4288.461426,4305.769043,4300.256348,4297.179688,4295.769043,4299.358887,4295.897461,4262.948730,4444.871582,4456.025879,4356.153809,4370.256348,0.000000,3.000000,72.000000,,,,0.000000,4.000000,4.000000,4.000000,4.000000,4.000000,4.000000,4.000000,4.000000,4.000000,4.000000,4.000000,4.000000,4.000000,4.000000,100.000000,,,,,,,,,,,,,,,,,,,,,,,,,,,,,,,,,,,,,,,,,,,,,,,,,,,,,,,,,,,,,,,,,,,,,,,,,,,,,,,,,,,,,,
1676666966.591419,1676666966.592218,52.000000,0.000000,4281.794922,4277.692383,4285.641113,4311.666504,4309.230957,4304.358887,4312.948730,4305.384766,4297.179688,4265.128418,4438.077148,4461.538574,4357.948730,4371.666504,0.000000,3.000000,72.000000,,,,0.000000,4.000000,4.000000,4.000000,4.000000,4.000000,4.000000,4.000000,4.000000,4.000000,4.000000,4.000000,4.000000,4.000000,4.000000,100.000000,,,,,,,,,,,,,,,,,,,,,,,,,,,,,,,,,,,,,,,,,,,,,,,,,,,,,,,,,,,,,,,,,,,,,,,,,,,,,,,,,,,,,,
1676666966.599228,1676666966.600126,53.000000,0.000000,4278.974121,4279.487305,4276.666504,4298.974121,4307.436035,4299.743652,4295.128418,4299.871582,4297.179688,4271.922852,4431.410156,4453.717773,4356.538574,4364.743652,0.000000,3.000000,72.000000,,,,0.000000,4.000000,4.000000,4.000000,4.000000,4.000000,4.000000,4.000000,4.000000,4.000000,4.000000,4.000000,4.000000,4.000000,4.000000,100.000000,,,,,,,,,,,,,,,,,,,,,,,,,,,,,,,,,,,,,,,,,,,,,,,,,,,,,,,,,,,,,,,,,,,,,,,,,,,,,,,,,,,,,,
1676666966.607036,1676666966.607935,54.000000,0.000000,4286.282227,4282.051270,4276.794922,4283.717773,4295.769043,4292.436035,4281.153809,4294.487305,4297.051270,4281.410156,4439.487305,4451.410156,4361.282227,4364.871582,0.000000,3.000000,72.000000,,,,0.000000,4.000000,4.000000,4.000000,4.000000,4.000000,4.000000,4.000000,4.000000,4.000000,4.000000,4.000000,4.000000,4.000000,4.000000,100.000000,,,,,,,,,,,,,,,,,,,,,,,,,,,,,,,,,,,,,,,,,,,,,,,,,,,,,,,,,,,,,,,,,,,,,,,,,,,,,,,,,,,,,,
1676666966.614844,1676666966.615743,55.000000,0.000000,4298.333496,4283.333496,4282.179688,4285.769043,4296.922852,4294.487305,4288.846191,4295.384766,4296.153809,4282.820313,4446.794922,4457.307617,4367.307617,4374.615234,0.000000,3.000000,72.000000,,,,0.000000,4.000000,4.000000,4.000000,4.000000,4.000000,4.000000,4.000000,4.000000,4.000000,4.000000,4.000000,4.000000,4.000000,4.000000,100.000000,,,,,,,,,,,,,,,,,2.855156,3.461020,1.209170,0.570655,0.215938,1.756884,2.652147,1.112644,0.290888,0.396859,4.204686,4.595428,1.642716,0.667246,0.234347,0.653111,0.716740,1.627494,0.814535,1.820765,1.639234,0.937257,0.230060,0.158851,0.143485,0.831103,1.643653,0.544392,0.173188,0.221526,1.858732,3.570393,1.111810,0.576480,0.628780,1.120487,2.056525,0.619330,0.355980,0.183252,0.723683,1.299362,0.574541,0.309215,0.133406,1.038260,1.066007,0.587815,0.359850,0.301218,1.277022,1.401955,0.556702,0.528473,0.618661,4.744022,5.798426,1.954552,0.643110,0.305719,2.415370,2.528164,0.982933,0.808338,0.328273,4.152624,4.838404,2.004735,0.560991,0.244098
1676666966.622653,1676666966.623452,56.000000,0.000000,4296.666504,4280.512695,4283.333496,4309.487305,4309.615234,4294.102539,4287.179688,4292.179688,4295.128418,4282.307617,4444.487305,4460.512695,4362.820313,4383.461426,0.000000,3.000000,72.000000,,,,0.000000,4.000000,4.000000,4.000000,4.000000,4.000000,4.000000,4.000000,4.000000,4.000000,4.000000,4.000000,4.000000,4.000000,4.000000,100.000000,,,,,,,,,,,,,,,,,,,,,,,,,,,,,,,,,,,,,,,,,,,,,,,,,,,,,,,,,,,,,,,,,,,,,,,,,,,,,,,,,,,,,,
1676666966.630461,1676666966.631260,57.000000,0.000000,4288.077148,4276.410156,4289.230957,4316.794922,4310.897461,4290.384766,4279.102539,4286.538574,4296.153809,4282.051270,4439.743652,4460.000000,4364.871582,4388.589844,0.000000,3.000000,72.000000,,,,0.000000,4.000000,4.000000,4.000000,4.000000,4.000000,4.000000,4.000000,4.000000,4.000000,4.000000,4.000000,4.000000,4.000000,4.000000,100.000000,,,,,,,,,,,,,,,,,,,,,,,,,,,,,,,,,,,,,,,,,,,,,,,,,,,,,,,,,,,,,,,,,,,,,,,,,,,,,,,,,,,,,,
1676666966.638269,1676666966.638969,58.000000,0.000000,4295.512695,4285.384766,4296.666504,4296.410156,4303.974121,4290.000000,4282.692383,4286.410156,4294.358887,4283.205078,4443.461426,4463.589844,4375.641113,4391.794922,0.000000,3.000000,72.000000,,,,0.000000,4.000000,4.000000,4.000000,4.000000,4.000000,4.000000,4.000000,4.000000,4.000000,4.000000,4.000000,4.000000,4.000000,4.000000,100.000000,,,,,,,,,,,,,,,,,,,,,,,,,,,,,,,,,,,,,,,,,,,,,,,,,,,,,,,,,,,,,,,,,,,,,,,,,,,,,,,,,,,,,,
1676666966.646078,1676666966.646777,59.000000,0.000000,4309.358887,4292.307617,4298.077148,4295.769043,4306.410156,4293.461426,4291.025879,4292.436035,4295.000000,4288.717773,4452.563965,4473.461426,4370.256348,4392.948730,0.000000,3.000000,72.000000,,,,0.000000,4.000000,4.000000,4.000000,4.000000,4.000000,4.000000,4.000000,4.000000,4.000000,4.000000,4.000000,4.000000,4.000000,4.000000,100.000000,,,,,,,,,,,,,,,,,,,,,,,,,,,,,,,,,,,,,,,,,,,,,,,,,,,,,,,,,,,,,,,,,,,,,,,,,,,,,,,,,,,,,,
1676666966.653886,1676666966.654486,60.000000,0.000000,4307.820313,4282.563965,4296.922852,4322.820313,4314.102539,4294.615234,4294.230957,4298.205078,4300.128418,4289.615234,4453.077148,4476.153809,4361.153809,4392.692383,0.000000,3.000000,72.000000,,,,0.000000,4.000000,4.000000,4.000000,4.000000,4.000000,4.000000,4.000000,4.000000,4.000000,4.000000,4.000000,4.000000,4.000000,4.000000,100.000000,,,,,,,,,,,,,,,,,,,,,,,,,,,,,,,,,,,,,,,,,,,,,,,,,,,,,,,,,,,,,,,,,,,,,,,,,,,,,,,,,,,,,,
1676666966.661694,1676666966.662394,61.000000,0.000000,4298.974121,4284.230957,4297.179688,4318.846191,4311.794922,4297.948730,4304.230957,4305.256348,4302.051270,4282.436035,4447.051270,4475.769043,4372.051270,4396.794922,0.000000,3.000000,72.000000,,,,0.000000,4.000000,4.000000,4.000000,4.000000,4.000000,4.000000,4.000000,4.000000,4.000000,4.000000,4.000000,4.000000,4.000000,4.000000,100.000000,,,,,,,,,,,,,,,,,,,,,,,,,,,,,,,,,,,,,,,,,,,,,,,,,,,,,,,,,,,,,,,,,,,,,,,,,,,,,,,,,,,,,,
1676666966.669503,1676666966.670203,62.000000,0.000000,4306.794922,4296.410156,4301.666504,4295.256348,4309.487305,4304.487305,4311.538574,4311.538574,4299.230957,4278.333496,4446.410156,4479.615234,4366.538574,4396.538574,0.000000,3.000000,72.000000,,,,0.000000,4.000000,4.000000,4.000000,4.000000,4.000000,4.000000,4.000000,4.000000,4.000000,4.000000,4.000000,4.000000,4.000000,4.000000,100.000000,,,,,,,,,,,,,,,,,,,,,,,,,,,,,,,,,,,,,,,,,,,,,,,,,,,,,,,,,,,,,,,,,,,,,,,,,,,,,,,,,,,,,,
1676666966.677311,1676666966.678111,63.000000,0.000000,4315.384766,4286.410156,4304.358887,4302.948730,4317.436035,4305.512695,4302.692383,4307.307617,4297.051270,4275.256348,4437.307617,4475.000000,4343.846191,4385.769043,0.000000,3.000000,72.000000,,,,0.000000,4.000000,4.000000,4.000000,4.000000,4.000000,4.000000,4.000000,4.000000,4.000000,4.000000,4.000000,4.000000,4.000000,4.000000,100.000000,,,,,,,,,,,,,,,,,,,,,,,,,,,,,,,,,,,,,,,,,,,,,,,,,,,,,,,,,,,,,,,,,,,,,,,,,,,,,,,,,,,,,,
1676666966.685120,1676666966.685919,64.000000,0.000000,4304.102539,4274.743652,4297.563965,4317.051270,4320.641113,4304.615234,4291.282227,4298.077148,4292.307617,4267.051270,4428.974121,4458.205078,4350.128418,4375.897461,2505.000000,3.000000,72.000000,,,,0.000000,4.000000,4.000000,4.000000,4.000000,4.000000,4.000000,4.000000,4.000000,4.000000,4.000000,4.000000,4.000000,4.000000,4.000000,100.000000,,,,,,,,,,,,,,,,,,,,,,,,,,,,,,,,,,,,,,,,,,,,,,,,,,,,,,,,,,,,,,,,,,,,,,,,,,,,,,,,,,,,,,
1676666966.692928,1676666966.693828,65.000000,0.000000,4300.384766,4285.641113,4291.538574,4311.538574,4318.333496,4307.563965,4294.102539,4294.615234,4288.461426,4268.846191,4439.230957,4455.128418,4369.230957,4381.153809,1494.000000,3.000000,72.000000,,,,0.000000,4.000000,4.000000,4.000000,4.000000,4.000000,4.000000,4.000000,4.000000,4.000000,4.000000,4.000000,4.000000,4.000000,4.000000,100.000000,,,,,,,,,,,,,,,,,,,,,,,,,,,,,,,,,,,,,,,,,,,,,,,,,,,,,,,,,,,,,,,,,,,,,,,,,,,,,,,,,,,,,,
1676666966.700736,1676666966.701636,66.000000,0.000000,4313.333496,4296.282227,4302.820313,4297.820313,4320.641113,4305.641113,4296.538574,4295.384766,4291.410156,4280.512695,4442.051270,4476.025879,4375.128418,4399.487305,2256.000000,3.000000,72.000000,,,,0.000000,4.000000,4.000000,4.000000,4.000000,4.000000,4.000000,4.000000,4.000000,4.000000,4.000000,4.000000,4.000000,4.000000,4.000000,100.000000,,,,,,,,,,,,,,,,,,,,,,,,,,,,,,,,,,,,,,,,,,,,,,,,,,,,,,,,,,,,,,,,,,,,,,,,,,,,,,,,,,,,,,
1676666966.708545,1676666966.709544,67.000000,0.000000,4325.384766,4300.769043,4327.179688,4301.538574,4322.307617,4300.641113,4295.256348,4300.897461,4297.051270,4290.769043,4451.410156,4505.641113,4386.410156,4423.589844,2339.000000,3.000000,72.000000,,,,0.000000,4.000000,4.000000,4.000000,4.000000,4.000000,4.000000,4.000000,4.000000,4.000000,4.000000,4.000000,4.000000,4.000000,4.000000,100.000000,,,,,,,,,,,,,,,,,,,,,,,,,,,,,,,,,,,,,,,,,,,,,,,,,,,,,,,,,,,,,,,,,,,,,,,,,,,,,,,,,,,,,,
1676666966.716353,1676666966.717353,68.000000,0.000000,4330.897461,4301.794922,4339.358887,4309.871582,4318.717773,4301.794922,4305.641113,4308.461426,4302.948730,4300.512695,4480.128418,4523.589844,4401.538574,4441.153809,2165.000000,3.000000,72.000000,,,,0.000000,4.000000,4.000000,4.000000,4.000000,4.000000,4.000000,4.000000,4.000000,4.000000,4.000000,4.000000,4.000000,4.000000,4.000000,100.000000,,,,,,,,,,,,,,,,,,,,,,,,,,,,,,,,,,,,,,,,,,,,,,,,,,,,,,,,,,,,,,,,,,,,,,,,,,,,,,,,,,,,,,
1676666966.724161,1676666966.725261,69.000000,0.000000,4325.128418,4297.563965,4329.743652,4308.333496,4317.051270,4301.410156,4311.025879,4308.846191,4306.025879,4303.846191,4480.897461,4514.358887,4405.384766,4435.128418,2259.000000,3.000000,72.000000,,,,0.000000,4.000000,4.000000,4.000000,4.000000,4.000000,4.000000,4.000000,4.000000,4.000000,4.000000,4.000000,4.000000,4.000000,4.000000,100.000000,,,,,,,,,,,,,,,,,,,,,,,,,,,,,,,,,,,,,,,,,,,,,,,,,,,,,,,,,,,,,,,,,,,,,,,,,,,,,,,,,,,,,,
1676666966.731970,1676666966.733070,70.000000,0.000000,4316.538574,4297.692383,4315.512695,4311.153809,4321.538574,4295.897461,4300.000000,4305.769043,4303.974121,4299.615234,4460.512695,4495.256348,4395.897461,4418.846191,2196.000000,3.000000,72.000000,,,,0.000000,4.000000,4.000000,4.000000,4.000000,4.000000,4.000000,4.000000,4.000000,4.000000,4.000000,4.000000,4.000000,4.000000,4.000000,100.000000,,,,,,,,,,,,,,,,,,,,,,,,,,,,,,,,,,,,,,,,,,,,,,,,,,,,,,,,,,,,,,,,,,,,,,,,,,,,,,,,,,,,,,
1676666966.739778,1676666966.740778,71.000000,0.000000,4306.153809,4288.974121,4305.128418,4310.641113,4324.871582,4297.051270,4296.153809,4307.179688,4302.820313,4293.333496,4451.282227,4490.897461,4381.282227,4408.589844,2306.000000,3.000000,72.000000,,,,0.000000,4.000000,4.000000,4.000000,4.000000,4.000000,4.000000,4.000000,4.000000,4.000000,4.000000,4.000000,4.000000,4.000000,4.000000,100.000000,,,,,,,,,,,,,,,,,2.252585,4.240902,1.378515,0.534791,0.218869,1.576576,3.477133,1.258673,0.237386,0.402032,3.476455,5.095319,1.590283,0.611799,0.212993,0.523263,0.942687,1.688654,0.769890,1.753393,1.457545,1.025740,0.210758,0.151514,0.155155,0.919422,1.846218,0.648619,0.180205,0.213618,1.879490,4.391767,1.123793,0.555626,0.659477,1.077651,2.108107,0.421090,0.347095,0.190276,0.628048,1.246495,0.517394,0.292327,0.116954,0.794384,0.824318,0.516123,0.370795,0.320295,1.157457,1.211943,0.482224,0.577957,0.660896,4.168245,5.204759,1.656739,0.609863,0.322091,1.956570,2.757882,1.153422,0.693639,0.374620,3.546155,4.999673,1.967970,0.560749,0.248819
1676666966.747586,1676666966.748587,72.000000,0.000000,4297.692383,4274.358887,4293.974121,4306.794922,4324.487305,4303.589844,4305.769043,4307.051270,4305.641113,4290.512695,4447.948730,4492.436035,4377.307617,4397.692383,2296.000000,3.000000,72.000000,,,,0.000000,4.000000,4.000000,4.000000,4.000000,4.000000,4.000000,4.000000,4.000000,4.000000,4.000000,4.000000,4.000000,4.000000,4.000000,100.000000,,,,,,,,,,,,,,,,,,,,,,,,,,,,,,,,,,,,,,,,,,,,,,,,,,,,,,,,,,,,,,,,,,,,,,,,,,,,,,,,,,,,,,
1676666966.755395,1676666966.756295,73.000000,0.000000,4301.538574,4284.615234,4296.794922,4311.153809,4325.641113,4308.205078,4317.307617,4314.871582,4310.000000,4294.230957,4456.410156,4491.794922,4386.794922,4391.794922,2234.000000,3.000000,72.000000,,,,0.000000,4.000000,4.000000,4.000000,4.000000,4.000000,4.000000,4.000000,4.000000,4.000000,4.000000,4.000000,4.000000,4.000000,4.000000,100.000000,,,,,,,,,,,,,,,,,,,,,,,,,,,,,,,,,,,,,,,,,,,,,,,,,,,,,,,,,,,,,,,,,,,,,,,,,,,,,,,,,,,,,,
1676666966.763203,1676666966.764104,74.000000,0.000000,4305.641113,4300.769043,4308.974121,4311.025879,4326.153809,4309.230957,4320.897461,4321.410156,4311.538574,4295.641113,4462.563965,4491.153809,4386.153809,4397.692383,2358.000000,3.000000,72.000000,,,,0.000000,4.000000,4.000000,4.000000,4.000000,4.000000,4.000000,4.000000,4.000000,4.000000,4.000000,4.000000,4.000000,4.000000,4.000000,100.000000,,,,,,,,,,,,,,,,,,,,,,,,,,,,,,,,,,,,,,,,,,,,,,,,,,,,,,,,,,,,,,,,,,,,,,,,,,,,,,,,,,,,,,
1676666966.771011,1676666966.771812,75.000000,0.000000,4298.333496,4294.102539,4305.897461,4303.717773,4326.282227,4312.051270,4319.487305,4312.820313,4307.563965,4284.358887,4443.461426,4490.000000,4376.025879,4408.205078,2797.000000,3.000000,72.000000,,,,0.000000,4.000000,4.000000,4.000000,4.000000,4.000000,4.000000,4.000000,4.000000,4.000000,4.000000,4.000000,4.000000,4.000000,4.000000,100.000000,,,,,,,,,,,,,,,,,,,,,,,,,,,,,,,,,,,,,,,,,,,,,,,,,,,,,,,,,,,,,,,,,,,,,,,,,,,,,,,,,,,,,,
1676666966.778820,1676666966.779621,76.000000,0.000000,4301.153809,4286.153809,4302.820313,4310.384766,4330.897461,4311.153809,4311.538574,4314.487305,4297.820313,4276.666504,4442.692383,4491.025879,4376.666504,4416.794922,2331.000000,3.000000,72.000000,,,,0.000000,4.000000,4.000000,4.000000,4.000000,4.000000,4.000000,4.000000,4.000000,4.000000,4.000000,4.000000,4.000000,4.000000,4.000000,100.000000,,,,,,,,,,,,,,,,,,,,,,,,,,,,,,,,,,,,,,,,,,,,,,,,,,,,,,,,,,,,,,,,,,,,,,,,,,,,,,,,,,,,,,
1676666966.786628,1676666966.787329,77.000000,0.000000,4312.307617,4287.436035,4311.410156,4314.487305,4333.333496,4302.307617,4295.512695,4330.384766,4288.717773,4281.794922,4463.461426,4490.641113,4383.846191,4418.717773,3121.000000,3.000000,72.000000,,,,0.000000,4.000000,4.000000,4.000000,4.000000,4.000000,4.000000,4.000000,4.000000,4.000000,4.000000,4.000000,4.000000,4.000000,4.000000,100.000000,,,,,,,,,,,,,,,,,,,,,,,,,,,,,,,,,,,,,,,,,,,,,,,,,,,,,,,,,,,,,,,,,,,,,,,,,,,,,,,,,,,,,,
1676666966.794437,1676666966.795138,78.000000,0.000000,4305.256348,4286.794922,4310.384766,4300.512695,4326.666504,4296.025879,4284.743652,4326.538574,4276.666504,4274.615234,4449.615234,4479.102539,4380.128418,4408.333496,2358.000000,3.000000,72.000000,,,,0.000000,4.000000,4.000000,4.000000,4.000000,4.000000,4.000000,4.000000,4.000000,4.000000,4.000000,4.000000,4.000000,4.000000,4.000000,100.000000,,,,,,,,,,,,,,,,,,,,,,,,,,,,,,,,,,,,,,,,,,,,,,,,,,,,,,,,,,,,,,,,,,,,,,,,,,,,,,,,,,,,,,
1676666966.802245,1676666966.802846,79.000000,0.000000,4291.794922,4274.358887,4293.717773,4292.948730,4318.846191,4294.230957,4279.743652,4307.179688,4264.358887,4255.256348,4423.205078,4463.333496,4358.589844,4391.025879,2797.000000,3.000000,72.000000,,,,0.000000,4.000000,4.000000,4.000000,4.000000,4.000000,4.000000,4.000000,4.000000,4.000000,4.000000,4.000000,4.000000,4.000000,4.000000,100.000000,,,,,,,,,,,,,,,,,,,,,,,,,,,,,,,,,,,,,,,,,,,,,,,,,,,,,,,,,,,,,,,,,,,,,,,,,,,,,,,,,,,,,,
1676666966.810053,1676666966.810655,80.000000,0.000000,4290.769043,4260.000000,4286.538574,4301.025879,4318.077148,4290.641113,4277.436035,4304.102539,4267.563965,4261.538574,4431.282227,4462.179688,4352.948730,4388.846191,2331.000000,3.000000,72.000000,,,,0.000000,4.000000,4.000000,4.000000,4.000000,4.000000,4.000000,4.000000,4.000000,4.000000,4.000000,4.000000,4.000000,4.000000,4.000000,100.000000,,,,,,,,,,,,,,,,,,,,,,,,,,,,,,,,,,,,,,,,,,,,,,,,,,,,,,,,,,,,,,,,,,,,,,,,,,,,,,,,,,,,,,
1676666966.817862,1676666966.818363,81.000000,0.000000,4296.282227,4269.615234,4302.179688,4307.563965,4321.794922,4289.487305,4282.307617,4310.000000,4281.025879,4284.615234,4453.333496,4475.384766,4374.230957,4403.205078,3121.000000,3.000000,72.000000,,,,0.000000,4.000000,4.000000,4.000000,4.000000,4.000000,4.000000,4.000000,4.000000,4.000000,4.000000,4.000000,4.000000,4.000000,4.000000,100.000000,,,,,,,,,,,,,,,,,,,,,,,,,,,,,,,,,,,,,,,,,,,,,,,,,,,,,,,,,,,,,,,,,,,,,,,,,,,,,,,,,,,,,,
1676666966.825670,1676666966.826172,82.000000,0.000000,4309.615234,4290.384766,4316.794922,4310.384766,4326.794922,4292.692383,4294.615234,4313.589844,4290.769043,4289.487305,4460.769043,4493.717773,4385.128418,4416.410156,2358.000000,3.000000,72.000000,,,,0.000000,4.000000,4.000000,4.000000,4.000000,4.000000,4.000000,4.000000,4.000000,4.000000,4.000000,4.000000,4.000000,4.000000,4.000000,100.000000,,,,,,,,,,,,,,,,,,,,,,,,,,,,,,,,,,,,,,,,,,,,,,,,,,,,,,,,,,,,,,,,,,,,,,,,,,,,,,,,,,,,,,
1676666966.833478,1676666966.833880,83.000000,0.000000,4315.769043,4290.000000,4314.230957,4310.000000,4327.692383,4293.846191,4299.487305,4321.538574,4300.769043,4287.563965,4458.589844,4503.717773,4384.102539,4417.820313,2797.000000,3.000000,72.000000,,,,0.000000,4.000000,4.000000,4.000000,4.000000,4.000000,4.000000,4.000000,4.000000,4.000000,4.000000,4.000000,4.000000,4.000000,4.000000,100.000000,,,,,,,,,,,,,,,,,,,,,,,,,,,,,,,,,,,,,,,,,,,,,,,,,,,,,,,,,,,,,,,,,,,,,,,,,,,,,,,,,,,,,,
1676666966.841287,1676666966.841689,84.000000,0.000000,4303.205078,4282.307617,4309.487305,4299.743652,4321.153809,4293.077148,4300.256348,4329.230957,4309.102539,4295.128418,4458.717773,4499.102539,4387.179688,4411.922852,2331.000000,3.000000,72.000000,,,,0.000000,4.000000,4.000000,4.000000,4.000000,4.000000,4.000000,4.000000,4.000000,4.000000,4.000000,4.000000,4.000000,4.000000,4.000000,100.000000,,,,,,,,,,,,,,,,,,,,,,,,,,,,,,,,,,,,,,,,,,,,,,,,,,,,,,,,,,,,,,,,,,,,,,,,,,,,,,,,,,,,,,
1676666966.849095,1676666966.849397,85.000000,0.000000,4293.974121,4279.102539,4312.820313,4305.256348,4319.743652,4295.384766,4306.538574,4329.487305,4309.487305,4297.179688,4457.436035,4489.487305,4387.436035,4408.077148,3121.000000,3.000000,72.000000,,,,0.000000,4.000000,4.000000,4.000000,4.000000,4.000000,4.000000,4.000000,4.000000,4.000000,4.000000,4.000000,4.000000,4.000000,4.000000,100.000000,,,,,,,,,,,,,,,,,,,,,,,,,,,,,,,,,,,,,,,,,,,,,,,,,,,,,,,,,,,,,,,,,,,,,,,,,,,,,,,,,,,,,,
1676666966.856903,1676666966.857306,86.000000,0.000000,4301.282227,4277.179688,4312.179688,4321.922852,4325.128418,4299.230957,4308.974121,4326.794922,4308.846191,4293.333496,4458.077148,4489.615234,4378.974121,4411.410156,2358.000000,3.000000,72.000000,,,,0.000000,4.000000,4.000000,4.000000,4.000000,4.000000,4.000000,4.000000,4.000000,4.000000,4.000000,4.000000,4.000000,4.000000,4.000000,100.000000,,,,,,,,,,,,,,,,,,,,,,,,,,,,,,,,,,,,,,,,,,,,,,,,,,,,,,,,,,,,,,,,,,,,,,,,,,,,,,,,,,,,,,
1676666966.864712,1676666966.865114,87.000000,0.000000,4312.820313,4289.871582,4313.461426,4303.461426,4330.000000,4306.153809,4317.820313,4332.051270,4308.717773,4288.717773,4457.692383,4502.051270,4379.487305,4423.333496,2797.000000,3.000000,72.000000,,,,0.000000,4.000000,4.000000,4.000000,4.000000,4.000000,4.000000,4.000000,4.000000,4.000000,4.000000,4.000000,4.000000,4.000000,4.000000,100.000000,,,,,,,,,,,,,,,,,1.854941,5.214749,1.511049,0.482233,0.218866,1.471780,4.469679,1.382985,0.199747,0.414382,2.714801,5.809627,1.522153,0.554761,0.193441,0.433968,1.176361,1.666618,0.813046,1.693052,1.475281,1.083490,0.195746,0.153754,0.164134,1.007833,1.995872,0.800517,0.204812,0.203935,1.763103,5.280980,1.221071,0.577792,0.701270,0.990232,2.314326,0.348929,0.342268,0.194747,0.594921,1.366770,0.588773,0.276160,0.101673,0.680985,0.671462,0.525190,0.391840,0.338907,1.013470,1.085637,0.434323,0.649018,0.681272,3.544015,4.811122,1.417795,0.591048,0.339601,1.618077,3.125355,1.322899,0.586994,0.419847,2.982565,5.369115,1.893400,0.577302,0.255631
1676666966.872520,1676666966.873022,88.000000,0.000000,4316.410156,4291.794922,4325.769043,4288.589844,4335.897461,4313.077148,4328.461426,4335.512695,4301.025879,4281.282227,4448.333496,4507.820313,4386.153809,4426.538574,2331.000000,3.000000,72.000000,,,,0.000000,4.000000,4.000000,4.000000,4.000000,4.000000,4.000000,4.000000,4.000000,4.000000,4.000000,4.000000,4.000000,4.000000,4.000000,100.000000,,,,,,,,,,,,,,,,,,,,,,,,,,,,,,,,,,,,,,,,,,,,,,,,,,,,,,,,,,,,,,,,,,,,,,,,,,,,,,,,,,,,,,
1676666966.880329,1676666966.880831,89.000000,0.000000,4315.384766,4276.922852,4325.769043,4322.307617,4343.333496,4313.846191,4315.641113,4321.025879,4293.717773,4283.461426,4448.461426,4497.436035,4385.384766,4416.666504,3121.000000,3.000000,72.000000,,,,0.000000,4.000000,4.000000,4.000000,4.000000,4.000000,4.000000,4.000000,4.000000,4.000000,4.000000,4.000000,4.000000,4.000000,4.000000,100.000000,,,,,,,,,,,,,,,,,,,,,,,,,,,,,,,,,,,,,,,,,,,,,,,,,,,,,,,,,,,,,,,,,,,,,,,,,,,,,,,,,,,,,,
1676666966.888137,1676666966.888739,90.000000,0.000000,4313.717773,4280.256348,4313.205078,4332.307617,4341.538574,4305.128418,4297.692383,4306.666504,4291.794922,4295.256348,4464.487305,4489.615234,4388.717773,4412.436035,2358.000000,3.000000,72.000000,,,,0.000000,4.000000,4.000000,4.000000,4.000000,4.000000,4.000000,4.000000,4.000000,4.000000,4.000000,4.000000,4.000000,4.000000,4.000000,100.000000,,,,,,,,,,,,,,,,,,,,,,,,,,,,,,,,,,,,,,,,,,,,,,,,,,,,,,,,,,,,,,,,,,,,,,,,,,,,,,,,,,,,,,
1676666966.895945,1676666966.896548,91.000000,0.000000,4309.615234,4287.948730,4307.692383,4294.102539,4332.820313,4301.666504,4305.512695,4311.410156,4295.897461,4303.589844,4467.948730,4498.077148,4399.102539,4419.102539,2797.000000,3.000000,72.000000,,,,0.000000,4.000000,4.000000,4.000000,4.000000,4.000000,4.000000,4.000000,4.000000,4.000000,4.000000,4.000000,4.000000,4.000000,4.000000,100.000000,,,,,,,,,,,,,,,,,,,,,,,,,,,,,,,,,,,,,,,,,,,,,,,,,,,,,,,,,,,,,,,,,,,,,,,,,,,,,,,,,,,,,,
1676666966.903754,1676666966.904456,92.000000,0.000000,4310.897461,4281.794922,4313.077148,4291.794922,4329.871582,4307.436035,4314.358887,4320.769043,4307.948730,4308.461426,4462.436035,4509.743652,4397.820313,4427.820313,2331.000000,3.000000,72.000000,,,,0.000000,4.000000,4.000000,4.000000,4.000000,4.000000,4.000000,4.000000,4.000000,4.000000,4.000000,4.000000,4.000000,4.000000,4.000000,100.000000,,,,,,,,,,,,,,,,,,,,,,,,,,,,,,,,,,,,,,,,,,,,,,,,,,,,,,,,,,,,,,,,,,,,,,,,,,,,,,,,,,,,,,
1676666966.911562,1676666966.912264,93.000000,0.000000,4319.871582,4284.230957,4321.282227,4323.205078,4331.922852,4302.563965,4303.461426,4321.153809,4314.358887,4310.641113,4463.974121,4510.000000,4391.153809,4430.769043,3121.000000,3.000000,72.000000,,,,0.000000,4.000000,4.000000,4.000000,4.000000,4.000000,4.000000,4.000000,4.000000,4.000000,4.000000,4.000000,4.000000,4.000000,4.000000,100.000000,,,,,,,,,,,,,,,,,,,,,,,,,,,,,,,,,,,,,,,,,,,,,,,,,,,,,,,,,,,,,,,,,,,,,,,,,,,,,,,,,,,,,,
1676666966.919371,1676666966.920073,94.000000,0.000000,4322.820313,4295.384766,4326.666504,4322.179688,4333.974121,4294.487305,4310.000000,4327.307617,4312.820313,4308.461426,4457.692383,4509.230957,4397.051270,4426.282227,2358.000000,3.000000,72.000000,,,,0.000000,4.000000,4.000000,4.000000,4.000000,4.000000,4.000000,4.000000,4.000000,4.000000,4.000000,4.000000,4.000000,4.000000,4.000000,100.000000,,,,,,,,,,,,,,,,,,,,,,,,,,,,,,,,,,,,,,,,,,,,,,,,,,,,,,,,,,,,,,,,,,,,,,,,,,,,,,,,,,,,,,
1676666966.927179,1676666966.927881,95.000000,0.000000,4313.333496,4293.589844,4326.025879,4304.487305,4334.230957,4298.333496,4322.563965,4335.769043,4313.846191,4304.230957,4458.333496,4503.589844,4395.256348,4412.692383,2797.000000,3.000000,72.000000,,,,0.000000,4.000000,4.000000,4.000000,4.000000,4.000000,4.000000,4.000000,4.000000,4.000000,4.000000,4.000000,4.000000,4.000000,4.000000,100.000000,,,,,,,,,,,,,,,,,,,,,,,,,,,,,,,,,,,,,,,,,,,,,,,,,,,,,,,,,,,,,,,,,,,,,,,,,,,,,,,,,,,,,,
1676666966.934987,1676666966.935590,96.000000,0.000000,4310.512695,4293.974121,4320.384766,4306.410156,4334.743652,4301.153809,4313.461426,4330.000000,4312.436035,4299.102539,4470.128418,4495.128418,4386.794922,4408.717773,2331.000000,3.000000,72.000000,,,,0.000000,4.000000,4.000000,4.000000,4.000000,4.000000,4.000000,4.000000,4.000000,4.000000,4.000000,4.000000,4.000000,4.000000,4.000000,100.000000,,,,,,,,,,,,,,,,,,,,,,,,,,,,,,,,,,,,,,,,,,,,,,,,,,,,,,,,,,,,,,,,,,,,,,,,,,,,,,,,,,,,,,
1676666966.942796,1676666966.943398,97.000000,0.000000,4316.410156,4299.358887,4319.871582,4315.641113,4338.077148,4299.871582,4317.307617,4324.871582,4307.051270,4295.128418,4462.948730,4496.794922,4392.820313,4419.743652,3121.000000,3.000000,72.000000,1,1,1,0.000000,4.000000,4.000000,4.000000,4.000000,4.000000,4.000000,4.000000,4.000000,4.000000,4.000000,4.000000,4.000000,4.000000,4.000000,100.000000,,,,,,,,,,,,,,,,,,,,,,,,,,,,,,,,,,,,,,,,,,,,,,,,,,,,,,,,,,,,,,,,,,,,,,,,,,,,,,,,,,,,,,
1676666966.950604,1676666966.951107,98.000000,0.000000,4310.000000,4287.179688,4317.692383,4310.641113,4335.128418,4302.307617,4332.179688,4328.717773,4307.820313,4295.769043,4456.666504,4499.230957,4391.794922,4417.563965,2358.000000,3.000000,72.000000,,,,0.000000,4.000000,4.000000,4.000000,4.000000,4.000000,4.000000,4.000000,4.000000,4.000000,4.000000,4.000000,4.000000,4.000000,4.000000,100.000000,,,,,,,,,,,,,,,,,,,,,,,,,,,,,,,,,,,,,,,,,,,,,,,,,,,,,,,,,,,,,,,,,,,,,,,,,,,,,,,,,,,,,,
1676666966.958412,1676666966.958915,99.000000,0.000000,4299.102539,4272.820313,4302.692383,4300.256348,4319.230957,4298.717773,4312.307617,4320.769043,4310.641113,4293.333496,4459.615234,4484.743652,4378.589844,4397.179688,2797.000000,3.000000,72.000000,,,,0.000000,4.000000,4.000000,4.000000,4.000000,4.000000,4.000000,4.000000,4.000000,4.000000,4.000000,4.000000,4.000000,4.000000,4.000000,100.000000,,,,,,,,,,,,,,,,,,,,,,,,,,,,,,,,,,,,,,,,,,,,,,,,,,,,,,,,,,,,,,,,,,,,,,,,,,,,,,,,,,,,,,
1676666966.966221,1676666966.966624,100.000000,0.000000,4299.615234,4303.717773,4293.333496,4307.563965,4309.615234,4292.948730,4290.769043,4309.102539,4307.436035,4293.846191,4453.077148,4473.077148,4381.666504,4393.077148,2331.000000,3.000000,72.000000,,,,0.000000,4.000000,4.000000,4.000000,4.000000,4.000000,4.000000,4.000000,4.000000,4.000000,4.000000,4.000000,4.000000,4.000000,4.000000,100.000000,,,,,,,,,,,,,,,,,,,,,,,,,,,,,,,,,,,,,,,,,,,,,,,,,,,,,,,,,,,,,,,,,,,,,,,,,,,,,,,,,,,,,,
1676666966.974029,1676666966.974432,101.000000,0.000000,4307.820313,4369.871582,4301.794922,4319.615234,4312.948730,4295.256348,4296.922852,4311.025879,4302.948730,4293.333496,4450.000000,4477.051270,4384.102539,4405.512695,3121.000000,3.000000,72.000000,,,,0.000000,4.000000,4.000000,4.000000,4.000000,4.000000,4.000000,4.000000,4.000000,4.000000,4.000000,4.000000,4.000000,4.000000,4.000000,100.000000,,,,,,,,,,,,,,,,,,,,,,,,,,,,,,,,,,,,,,,,,,,,,,,,,,,,,,,,,,,,,,,,,,,,,,,,,,,,,,,,,,,,,,
1676666966.981837,1676666966.982141,102.000000,0.000000,4309.743652,4392.820313,4313.333496,4310.641113,4309.871582,4293.461426,4299.230957,4310.897461,4297.820313,4285.128418,4454.871582,4479.230957,4375.128418,4403.205078,2358.000000,3.000000,72.000000,,,,0.000000,4.000000,4.000000,4.000000,4.000000,4.000000,4.000000,4.000000,4.000000,4.000000,4.000000,4.000000,4.000000,4.000000,4.000000,100.000000,,,,,,,,,,,,,,,,,,,,,,,,,,,,,,,,,,,,,,,,,,,,,,,,,,,,,,,,,,,,,,,,,,,,,,,,,,,,,,,,,,,,,,
1676666966.989646,1676666966.989949,103.000000,0.000000,4310.641113,4370.384766,4315.384766,4304.102539,4298.717773,4292.051270,4302.948730,4305.512695,4296.153809,4279.358887,4446.666504,4483.717773,4375.897461,4398.846191,2797.000000,3.000000,72.000000,,,,0.000000,4.000000,4.000000,4.000000,4.000000,4.000000,4.000000,4.000000,4.000000,4.000000,4.000000,4.000000,4.000000,4.000000,4.000000,100.000000,1.000000,83.333336,4.000000,4.000000,4.000000,2.000000,4.000000,4.000000,4.000000,4.000000,4.000000,4.000000,4.000000,4.000000,4.000000,4.000000,1.704151,6.026245,1.563099,0.412669,0.218984,1.416694,5.268913,1.430574,0.177303,0.420381,2.074015,6.362843,1.416013,0.492630,0.177217,0.385099,1.360848,1.560387,0.897739,1.620835,1.581493,1.072579,0.185208,0.158075,0.169699,1.078118,2.039512,0.937389,0.235513,0.192641,1.558026,6.002752,1.328927,0.628522,0.741474,0.873484,2.596551,0.384121,0.332711,0.193780,0.632708,1.621578,0.739511,0.258448,0.088533,0.689751,0.607793,0.571826,0.411845,0.346035,0.863627,1.023020,0.420012,0.726084,0.668644,2.923110,4.537386,1.247928,0.585114,0.353097,1.399031,3.437733,1.416843,0.501846,0.453565,2.498333,5.688595,1.790056,0.592293,0.263011
1676666966.997454,1676666966.997658,104.000000,0.000000,4312.436035,4357.436035,4315.384766,4303.974121,4294.358887,4293.333496,4311.666504,4310.128418,4300.000000,4279.743652,4439.743652,4490.256348,4379.230957,4406.538574,2331.000000,3.000000,72.000000,,,,0.000000,4.000000,4.000000,4.000000,4.000000,4.000000,4.000000,4.000000,4.000000,4.000000,4.000000,4.000000,4.000000,4.000000,4.000000,100.000000,,,,,,,,,,,,,,,,,,,,,,,,,,,,,,,,,,,,,,,,,,,,,,,,,,,,,,,,,,,,,,,,,,,,,,,,,,,,,,,,,,,,,,
1676666967.005262,1676666967.005566,105.000000,0.000000,4305.256348,4351.282227,4309.871582,4300.641113,4295.000000,4284.358887,4301.922852,4313.077148,4303.717773,4280.897461,4445.769043,4483.333496,4373.461426,4403.717773,3121.000000,3.000000,72.000000,,,,0.000000,4.000000,4.000000,4.000000,4.000000,4.000000,4.000000,4.000000,4.000000,4.000000,4.000000,4.000000,4.000000,4.000000,4.000000,100.000000,,,,,,,,,,,,,,,,,,,,,,,,,,,,,,,,,,,,,,,,,,,,,,,,,,,,,,,,,,,,,,,,,,,,,,,,,,,,,,,,,,,,,,
1676666967.013071,1676666967.013375,106.000000,0.000000,4296.025879,4342.948730,4299.358887,4305.256348,4293.077148,4277.563965,4289.615234,4309.230957,4306.025879,4274.871582,4448.589844,4475.128418,4364.615234,4395.512695,2358.000000,3.000000,72.000000,,,,0.000000,4.000000,4.000000,4.000000,4.000000,4.000000,4.000000,4.000000,4.000000,4.000000,4.000000,4.000000,4.000000,4.000000,4.000000,100.000000,,,,,,,,,,,,,,,,,,,,,,,,,,,,,,,,,,,,,,,,,,,,,,,,,,,,,,,,,,,,,,,,,,,,,,,,,,,,,,,,,,,,,,
1676666967.020879,1676666967.021283,107.000000,0.000000,4298.461426,4339.487305,4298.333496,4305.128418,4294.487305,4286.794922,4294.871582,4313.205078,4307.436035,4273.589844,4444.871582,4476.410156,4364.871582,4395.000000,2797.000000,3.000000,72.000000,,,,0.000000,4.000000,4.000000,4.000000,4.000000,4.000000,4.000000,4.000000,4.000000,4.000000,4.000000,4.000000,4.000000,4.000000,4.000000,100.000000,,,,,,,,,,,,,,,,,,,,,,,,,,,,,,,,,,,,,,,,,,,,,,,,,,,,,,,,,,,,,,,,,,,,,,,,,,,,,,,,,,,,,,
1676666967.028688,1676666967.029091,108.000000,0.000000,4299.102539,4334.230957,4300.512695,4298.461426,4298.333496,4295.769043,4305.384766,4320.256348,4307.820313,4278.846191,4444.102539,4475.512695,4364.743652,4386.922852,2331.000000,3.000000,72.000000,,,,0.000000,4.000000,4.000000,4.000000,4.000000,4.000000,4.000000,4.000000,4.000000,4.000000,4.000000,4.000000,4.000000,4.000000,4.000000,100.000000,,,,,,,,,,,,,,,,,,,,,,,,,,,,,,,,,,,,,,,,,,,,,,,,,,,,,,,,,,,,,,,,,,,,,,,,,,,,,,,,,,,,,,
1676666967.036496,1676666967.037000,109.000000,0.000000,4288.077148,4325.512695,4291.922852,4307.692383,4296.666504,4295.000000,4312.563965,4320.256348,4304.743652,4277.436035,4451.922852,4470.512695,4351.666504,4373.205078,3121.000000,3.000000,72.000000,,,,0.000000,4.000000,4.000000,4.000000,4.000000,4.000000,4.000000,4.000000,4.000000,4.000000,4.000000,4.000000,4.000000,4.000000,4.000000,100.000000,,,,,,,,,,,,,,,,,,,,,,,,,,,,,,,,,,,,,,,,,,,,,,,,,,,,,,,,,,,,,,,,,,,,,,,,,,,,,,,,,,,,,,
1676666967.044304,1676666967.044808,110.000000,0.000000,4280.641113,4321.794922,4282.436035,4316.282227,4292.820313,4294.487305,4311.794922,4318.846191,4296.922852,4267.051270,4442.563965,4466.666504,4348.974121,4372.563965,2358.000000,3.000000,72.000000,,,,0.000000,4.000000,4.000000,4.000000,4.000000,4.000000,4.000000,4.000000,4.000000,4.000000,4.000000,4.000000,4.000000,4.000000,4.000000,100.000000,,,,,,,,,,,,,,,,,,,,,,,,,,,,,,,,,,,,,,,,,,,,,,,,,,,,,,,,,,,,,,,,,,,,,,,,,,,,,,,,,,,,,,
1676666967.052113,1676666967.052717,111.000000,0.000000,4283.205078,4319.615234,4277.948730,4296.922852,4291.410156,4292.692383,4297.307617,4310.384766,4291.794922,4260.897461,4416.025879,4458.333496,4364.615234,4374.615234,2797.000000,3.000000,72.000000,,,,0.000000,4.000000,4.000000,4.000000,4.000000,4.000000,4.000000,4.000000,4.000000,4.000000,4.000000,4.000000,4.000000,4.000000,4.000000,100.000000,,,,,,,,,,,,,,,,,,,,,,,,,,,,,,,,,,,,,,,,,,,,,,,,,,,,,,,,,,,,,,,,,,,,,,,,,,,,,,,,,,,,,,
1676666967.059921,1676666967.060525,112.000000,0.000000,4285.897461,4316.282227,4277.436035,4282.948730,4293.589844,4289.487305,4288.846191,4297.820313,4292.692383,4267.436035,4426.538574,4453.589844,4366.922852,4370.897461,2331.000000,3.000000,72.000000,,,,0.000000,4.000000,4.000000,4.000000,4.000000,4.000000,4.000000,4.000000,4.000000,4.000000,4.000000,4.000000,4.000000,4.000000,4.000000,100.000000,,,,,,,,,,,,,,,,,,,,,,,,,,,,,,,,,,,,,,,,,,,,,,,,,,,,,,,,,,,,,,,,,,,,,,,,,,,,,,,,,,,,,,
1676666967.067729,1676666967.068433,113.000000,0.000000,4285.128418,4316.025879,4285.384766,4303.974121,4292.563965,4294.102539,4301.410156,4301.282227,4295.000000,4275.769043,4451.922852,4463.589844,4355.000000,4375.897461,3121.000000,3.000000,72.000000,,,,0.000000,4.000000,4.000000,4.000000,4.000000,4.000000,4.000000,4.000000,4.000000,4.000000,4.000000,4.000000,4.000000,4.000000,4.000000,100.000000,,,,,,,,,,,,,,,,,,,,,,,,,,,,,,,,,,,,,,,,,,,,,,,,,,,,,,,,,,,,,,,,,,,,,,,,,,,,,,,,,,,,,,
1676666967.075538,1676666967.076242,114.000000,0.000000,4282.436035,4311.410156,4297.307617,4302.436035,4286.538574,4298.717773,4307.820313,4311.794922,4299.615234,4281.794922,4448.077148,4477.436035,4359.871582,4385.641113,2358.000000,3.000000,72.000000,,,,0.000000,4.000000,4.000000,4.000000,4.000000,4.000000,4.000000,4.000000,4.000000,4.000000,4.000000,4.000000,4.000000,4.000000,4.000000,100.000000,,,,,,,,,,,,,,,,,,,,,,,,,,,,,,,,,,,,,,,,,,,,,,,,,,,,,,,,,,,,,,,,,,,,,,,,,,,,,,,,,,,,,,
1676666967.083346,1676666967.084150,115.000000,0.000000,4276.922852,4298.589844,4295.641113,4276.153809,4280.641113,4287.179688,4296.794922,4311.794922,4304.102539,4282.436035,4447.436035,4478.333496,4368.333496,4382.948730,2797.000000,3.000000,72.000000,,,,0.000000,4.000000,4.000000,4.000000,4.000000,4.000000,4.000000,4.000000,4.000000,4.000000,4.000000,4.000000,4.000000,4.000000,4.000000,100.000000,,,,,,,,,,,,,,,,,,,,,,,,,,,,,,,,,,,,,,,,,,,,,,,,,,,,,,,,,,,,,,,,,,,,,,,,,,,,,,,,,,,,,,
1676666967.091154,1676666967.091959,116.000000,0.000000,4275.769043,4292.307617,4290.897461,4286.666504,4280.256348,4278.717773,4298.333496,4316.025879,4303.077148,4279.743652,4452.179688,4473.589844,4367.948730,4378.333496,2331.000000,3.000000,72.000000,,,,0.000000,4.000000,4.000000,4.000000,4.000000,4.000000,4.000000,4.000000,4.000000,4.000000,4.000000,4.000000,4.000000,4.000000,4.000000,100.000000,,,,,,,,,,,,,,,,,,,,,,,,,,,,,,,,,,,,,,,,,,,,,,,,,,,,,,,,,,,,,,,,,,,,,,,,,,,,,,,,,,,,,,
1676666967.098963,1676666967.099867,117.000000,0.000000,4286.922852,4298.589844,4301.666504,4313.589844,4284.615234,4288.333496,4313.589844,4327.307617,4306.538574,4280.384766,4445.897461,4481.794922,4366.794922,4385.128418,3121.000000,3.000000,72.000000,,,,0.000000,4.000000,4.000000,4.000000,4.000000,4.000000,4.000000,4.000000,4.000000,4.000000,4.000000,4.000000,4.000000,4.000000,4.000000,100.000000,,,,,,,,,,,,,,,,,,,,,,,,,,,,,,,,,,,,,,,,,,,,,,,,,,,,,,,,,,,,,,,,,,,,,,,,,,,,,,,,,,,,,,
1676666967.106771,1676666967.107675,118.000000,0.000000,4295.641113,4303.974121,4314.358887,4311.410156,4286.666504,4288.461426,4314.230957,4325.512695,4312.436035,4279.615234,4452.563965,4487.563965,4359.358887,4390.769043,2358.000000,3.000000,72.000000,,,,0.000000,4.000000,4.000000,4.000000,4.000000,4.000000,4.000000,4.000000,4.000000,4.000000,4.000000,4.000000,4.000000,4.000000,4.000000,100.000000,,,,,,,,,,,,,,,,,,,,,,,,,,,,,,,,,,,,,,,,,,,,,,,,,,,,,,,,,,,,,,,,,,,,,,,,,,,,,,,,,,,,,,
1676666967.114580,1676666967.115484,119.000000,0.000000,4294.871582,4307.051270,4315.769043,4298.974121,4287.051270,4278.333496,4307.820313,4321.794922,4312.820313,4278.205078,4457.692383,4483.077148,4355.256348,4389.230957,2797.000000,3.000000,72.000000,,,,0.000000,4.000000,4.000000,4.000000,4.000000,4.000000,4.000000,4.000000,4.000000,4.000000,4.000000,4.000000,4.000000,4.000000,4.000000,100.000000,,,,,,,,,,,,,,,,,1.792627,6.375976,1.520378,0.347427,0.223048,1.354348,5.579041,1.359079,0.172161,0.415841,1.713420,6.452402,1.297060,0.445108,0.168355,0.365860,1.455799,1.375287,0.958177,1.527017,1.614276,0.987139,0.180530,0.160349,0.172154,1.109015,1.963560,0.995261,0.257432,0.178529,1.357809,6.382747,1.357992,0.690321,0.763913,0.745358,2.845955,0.486871,0.320906,0.187316,0.735619,1.958995,0.911670,0.243351,0.077050,0.797812,0.652930,0.628141,0.425181,0.335255,0.743426,1.026986,0.454904,0.792635,0.626680,2.434678,4.283516,1.165052,0.612839,0.360740,1.303246,3.542045,1.412674,0.451488,0.470563,2.131301,5.750184,1.726761,0.616750,0.268546
1676666967.122388,1676666967.123292,120.000000,0.000000,4293.846191,4312.307617,4311.794922,4307.820313,4291.922852,4285.256348,4315.000000,4326.153809,4312.307617,4281.922852,4448.717773,4488.205078,4363.589844,4389.102539,2331.000000,3.000000,72.000000,,,,0.000000,4.000000,4.000000,4.000000,4.000000,4.000000,4.000000,4.000000,4.000000,4.000000,4.000000,4.000000,4.000000,4.000000,4.000000,100.000000,,,,,,,,,,,,,,,,,,,,,,,,,,,,,,,,,,,,,,,,,,,,,,,,,,,,,,,,,,,,,,,,,,,,,,,,,,,,,,,,,,,,,,
1676666967.130196,1676666967.131001,121.000000,0.000000,4296.666504,4312.436035,4311.538574,4309.230957,4296.794922,4299.871582,4325.128418,4324.230957,4313.077148,4284.871582,4454.615234,4495.128418,4370.000000,4388.974121,3121.000000,3.000000,72.000000,,,,0.000000,4.000000,4.000000,4.000000,4.000000,4.000000,4.000000,4.000000,4.000000,4.000000,4.000000,4.000000,4.000000,4.000000,4.000000,100.000000,,,,,,,,,,,,,,,,,,,,,,,,,,,,,,,,,,,,,,,,,,,,,,,,,,,,,,,,,,,,,,,,,,,,,,,,,,,,,,,,,,,,,,
1676666967.138005,1676666967.138809,122.000000,0.000000,4295.256348,4309.871582,4310.897461,4292.307617,4293.205078,4296.025879,4316.922852,4313.717773,4306.410156,4281.794922,4466.282227,4485.641113,4366.666504,4389.615234,2358.000000,3.000000,72.000000,,,,0.000000,4.000000,4.000000,4.000000,4.000000,4.000000,4.000000,4.000000,4.000000,4.000000,4.000000,4.000000,4.000000,4.000000,4.000000,100.000000,,,,,,,,,,,,,,,,,,,,,,,,,,,,,,,,,,,,,,,,,,,,,,,,,,,,,,,,,,,,,,,,,,,,,,,,,,,,,,,,,,,,,,
1676666967.145813,1676666967.146618,123.000000,0.000000,4291.153809,4310.000000,4300.897461,4293.846191,4289.230957,4286.538574,4294.871582,4303.461426,4299.102539,4277.307617,4454.487305,4473.717773,4364.102539,4390.769043,2797.000000,3.000000,72.000000,,,,0.000000,4.000000,4.000000,4.000000,4.000000,4.000000,4.000000,4.000000,4.000000,4.000000,4.000000,4.000000,4.000000,4.000000,4.000000,100.000000,,,,,,,,,,,,,,,,,,,,,,,,,,,,,,,,,,,,,,,,,,,,,,,,,,,,,,,,,,,,,,,,,,,,,,,,,,,,,,,,,,,,,,
1676666967.153621,1676666967.154526,124.000000,0.000000,4290.256348,4306.922852,4290.512695,4312.307617,4293.077148,4292.563965,4291.666504,4303.333496,4297.563965,4269.615234,4442.820313,4474.871582,4366.922852,4389.230957,2331.000000,3.000000,72.000000,,,,0.000000,4.000000,4.000000,4.000000,4.000000,4.000000,4.000000,4.000000,4.000000,4.000000,4.000000,4.000000,4.000000,4.000000,4.000000,100.000000,,,,,,,,,,,,,,,,,,,,,,,,,,,,,,,,,,,,,,,,,,,,,,,,,,,,,,,,,,,,,,,,,,,,,,,,,,,,,,,,,,,,,,
1676666967.161430,1676666967.162334,125.000000,0.000000,4291.025879,4308.589844,4293.846191,4319.871582,4295.512695,4296.538574,4303.589844,4307.179688,4296.794922,4267.563965,4453.589844,4476.666504,4370.897461,4388.589844,3121.000000,3.000000,72.000000,,,,0.000000,4.000000,4.000000,4.000000,4.000000,4.000000,4.000000,4.000000,4.000000,4.000000,4.000000,4.000000,4.000000,4.000000,4.000000,100.000000,,,,,,,,,,,,,,,,,,,,,,,,,,,,,,,,,,,,,,,,,,,,,,,,,,,,,,,,,,,,,,,,,,,,,,,,,,,,,,,,,,,,,,
1676666967.169238,1676666967.170143,126.000000,0.000000,4295.128418,4315.384766,4306.025879,4306.666504,4291.025879,4286.538574,4299.615234,4307.563965,4298.333496,4277.563965,4460.512695,4474.230957,4369.230957,4389.615234,2358.000000,3.000000,72.000000,,,,0.000000,4.000000,4.000000,4.000000,4.000000,4.000000,4.000000,4.000000,4.000000,4.000000,4.000000,4.000000,4.000000,4.000000,4.000000,100.000000,,,,,,,,,,,,,,,,,,,,,,,,,,,,,,,,,,,,,,,,,,,,,,,,,,,,,,,,,,,,,,,,,,,,,,,,,,,,,,,,,,,,,,
1676666967.177046,1676666967.177851,127.000000,0.000000,4296.282227,4313.461426,4312.436035,4300.128418,4286.538574,4280.256348,4288.974121,4306.538574,4304.102539,4281.025879,4443.205078,4474.230957,4361.410156,4385.512695,72.000000,3.000000,72.000000,,,,0.000000,4.000000,4.000000,4.000000,4.000000,4.000000,4.000000,4.000000,4.000000,4.000000,4.000000,4.000000,4.000000,4.000000,4.000000,100.000000,,,,,,,,,,,,,,,,,,,,,,,,,,,,,,,,,,,,,,,,,,,,,,,,,,,,,,,,,,,,,,,,,,,,,,,,,,,,,,,,,,,,,,
1676666967.184855,1676666967.185660,0.000000,0.000000,4288.461426,4306.538574,4310.128418,4314.487305,4289.743652,4282.436035,4290.256348,4307.948730,4304.487305,4275.769043,4434.871582,4474.358887,4356.282227,4382.692383,2508.000000,3.000000,72.000000,,,,0.000000,4.000000,4.000000,4.000000,4.000000,4.000000,4.000000,4.000000,4.000000,4.000000,4.000000,4.000000,4.000000,4.000000,4.000000,100.000000,,,,,,,,,,,,,,,,,,,,,,,,,,,,,,,,,,,,,,,,,,,,,,,,,,,,,,,,,,,,,,,,,,,,,,,,,,,,,,,,,,,,,,
1676666967.192663,1676666967.193368,1.000000,0.000000,4279.615234,4307.948730,4300.512695,4312.051270,4295.256348,4284.743652,4300.000000,4310.128418,4297.436035,4278.846191,4454.615234,4472.692383,4357.436035,4385.897461,1486.000000,3.000000,72.000000,,,,0.000000,4.000000,4.000000,4.000000,4.000000,4.000000,4.000000,4.000000,4.000000,4.000000,4.000000,4.000000,4.000000,4.000000,4.000000,100.000000,,,,,,,,,,,,,,,,,,,,,,,,,,,,,,,,,,,,,,,,,,,,,,,,,,,,,,,,,,,,,,,,,,,,,,,,,,,,,,,,,,,,,,
1676666967.200472,1676666967.201177,2.000000,0.000000,4277.307617,4306.153809,4293.461426,4287.948730,4293.717773,4288.077148,4308.589844,4309.871582,4296.282227,4278.846191,4455.512695,4473.589844,4361.025879,4387.051270,2247.000000,3.000000,72.000000,,,,0.000000,4.000000,4.000000,4.000000,4.000000,4.000000,4.000000,4.000000,4.000000,4.000000,4.000000,4.000000,4.000000,4.000000,4.000000,100.000000,,,,,,,,,,,,,,,,,,,,,,,,,,,,,,,,,,,,,,,,,,,,,,,,,,,,,,,,,,,,,,,,,,,,,,,,,,,,,,,,,,,,,,
1676666967.208280,1676666967.208885,3.000000,0.000000,4275.897461,4289.102539,4294.230957,4290.256348,4292.820313,4290.000000,4306.282227,4308.205078,4297.307617,4271.922852,4439.871582,4482.179688,4363.205078,4388.077148,2311.000000,3.000000,72.000000,,,,0.000000,4.000000,4.000000,4.000000,4.000000,4.000000,4.000000,4.000000,4.000000,4.000000,4.000000,4.000000,4.000000,4.000000,4.000000,100.000000,,,,,,,,,,,,,,,,,,,,,,,,,,,,,,,,,,,,,,,,,,,,,,,,,,,,,,,,,,,,,,,,,,,,,,,,,,,,,,,,,,,,,,
1676666967.216088,1676666967.216694,4.000000,0.000000,4272.820313,4280.000000,4294.615234,4326.538574,4294.743652,4287.563965,4304.230957,4308.717773,4295.128418,4276.666504,4456.025879,4487.948730,4362.692383,4388.974121,2162.000000,3.000000,72.000000,,,,0.000000,4.000000,4.000000,4.000000,4.000000,4.000000,4.000000,4.000000,4.000000,4.000000,4.000000,4.000000,4.000000,4.000000,4.000000,100.000000,,,,,,,,,,,,,,,,,,,,,,,,,,,,,,,,,,,,,,,,,,,,,,,,,,,,,,,,,,,,,,,,,,,,,,,,,,,,,,,,,,,,,,
1676666967.223897,1676666967.224402,5.000000,0.000000,4280.384766,4293.717773,4300.641113,4326.025879,4289.230957,4293.205078,4315.256348,4316.282227,4301.538574,4283.205078,4464.487305,4489.743652,4364.102539,4387.820313,2259.000000,3.000000,72.000000,,,,0.000000,4.000000,4.000000,4.000000,4.000000,4.000000,4.000000,4.000000,4.000000,4.000000,4.000000,4.000000,4.000000,4.000000,4.000000,100.000000,,,,,,,,,,,,,,,,,,,,,,,,,,,,,,,,,,,,,,,,,,,,,,,,,,,,,,,,,,,,,,,,,,,,,,,,,,,,,,,,,,,,,,
1676666967.231705,1676666967.232311,6.000000,0.000000,4294.102539,4301.282227,4310.256348,4301.794922,4284.102539,4298.205078,4312.692383,4314.102539,4305.897461,4278.846191,4439.358887,4486.410156,4365.128418,4391.410156,2177.000000,3.000000,72.000000,,,,0.000000,4.000000,4.000000,4.000000,4.000000,4.000000,4.000000,4.000000,4.000000,4.000000,4.000000,4.000000,4.000000,4.000000,4.000000,100.000000,,,,,,,,,,,,,,,,,,,,,,,,,,,,,,,,,,,,,,,,,,,,,,,,,,,,,,,,,,,,,,,,,,,,,,,,,,,,,,,,,,,,,,
1676666967.239514,1676666967.240119,7.000000,0.000000,4296.922852,4293.974121,4310.128418,4305.384766,4289.743652,4289.871582,4293.333496,4300.384766,4296.153809,4275.897461,4438.077148,4481.025879,4361.025879,4396.410156,2306.000000,3.000000,72.000000,,,,0.000000,4.000000,4.000000,4.000000,4.000000,4.000000,4.000000,4.000000,4.000000,4.000000,4.000000,4.000000,4.000000,4.000000,4.000000,100.000000,,,,,,,,,,,,,,,,,2.058557,6.123710,1.396126,0.313298,0.233888,1.360624,5.329865,1.224407,0.208362,0.410243,1.689662,5.962409,1.204764,0.442377,0.171384,0.364084,1.444850,1.134248,0.946721,1.423799,1.497339,0.854455,0.185323,0.163340,0.172440,1.100579,1.801949,0.937244,0.260772,0.161331,1.262378,6.346279,1.248725,0.752809,0.756423,0.613833,2.970961,0.603507,0.315917,0.178559,0.892583,2.345732,1.061927,0.240896,0.066155,1.002162,0.838665,0.687364,0.436630,0.308149,0.693901,1.091096,0.542895,0.843071,0.574055,2.211670,3.960854,1.155999,0.705251,0.362770,1.330587,3.398958,1.332840,0.448733,0.471043,1.910356,5.459429,1.763421,0.682245,0.271015
1676666967.247322,1676666967.248028,8.000000,0.000000,4293.077148,4296.025879,4308.205078,4311.153809,4296.025879,4288.974121,4290.769043,4296.666504,4290.128418,4278.717773,4456.025879,4483.205078,4361.410156,4396.025879,2296.000000,3.000000,72.000000,,,,0.000000,4.000000,4.000000,4.000000,4.000000,4.000000,4.000000,4.000000,4.000000,4.000000,4.000000,4.000000,4.000000,4.000000,4.000000,100.000000,,,,,,,,,,,,,,,,,,,,,,,,,,,,,,,,,,,,,,,,,,,,,,,,,,,,,,,,,,,,,,,,,,,,,,,,,,,,,,,,,,,,,,
1676666967.255130,1676666967.255836,9.000000,0.000000,4295.512695,4298.974121,4315.512695,4298.333496,4296.794922,4292.948730,4295.384766,4298.717773,4293.589844,4277.307617,4452.179688,4490.897461,4366.153809,4399.615234,2222.000000,3.000000,72.000000,,,,0.000000,4.000000,4.000000,4.000000,4.000000,4.000000,4.000000,4.000000,4.000000,4.000000,4.000000,4.000000,4.000000,4.000000,4.000000,100.000000,,,,,,,,,,,,,,,,,,,,,,,,,,,,,,,,,,,,,,,,,,,,,,,,,,,,,,,,,,,,,,,,,,,,,,,,,,,,,,,,,,,,,,
1676666967.262939,1676666967.263744,10.000000,0.000000,4304.358887,4294.102539,4318.974121,4291.794922,4299.358887,4290.000000,4290.384766,4296.153809,4291.538574,4276.794922,4450.256348,4498.461426,4366.538574,4411.794922,2321.000000,3.000000,72.000000,,,,0.000000,4.000000,4.000000,4.000000,4.000000,4.000000,4.000000,4.000000,4.000000,4.000000,4.000000,4.000000,4.000000,4.000000,4.000000,100.000000,,,,,,,,,,,,,,,,,,,,,,,,,,,,,,,,,,,,,,,,,,,,,,,,,,,,,,,,,,,,,,,,,,,,,,,,,,,,,,,,,,,,,,
1676666967.270747,1676666967.271653,11.000000,0.000000,4311.794922,4299.230957,4319.743652,4314.102539,4303.974121,4288.717773,4295.769043,4300.641113,4290.897461,4283.077148,4460.000000,4505.512695,4374.358887,4418.461426,2777.000000,3.000000,72.000000,,,,0.000000,4.000000,4.000000,4.000000,4.000000,4.000000,4.000000,4.000000,4.000000,4.000000,4.000000,4.000000,4.000000,4.000000,4.000000,100.000000,,,,,,,,,,,,,,,,,,,,,,,,,,,,,,,,,,,,,,,,,,,,,,,,,,,,,,,,,,,,,,,,,,,,,,,,,,,,,,,,,,,,,,
1676666967.278555,1676666967.279461,12.000000,0.000000,4318.205078,4310.641113,4328.461426,4338.589844,4305.769043,4292.692383,4315.000000,4314.230957,4298.974121,4284.102539,4461.666504,4511.794922,4385.128418,4421.538574,2358.000000,3.000000,72.000000,,,,0.000000,4.000000,4.000000,4.000000,4.000000,4.000000,4.000000,4.000000,4.000000,4.000000,4.000000,4.000000,4.000000,4.000000,4.000000,100.000000,,,,,,,,,,,,,,,,,,,,,,,,,,,,,,,,,,,,,,,,,,,,,,,,,,,,,,,,,,,,,,,,,,,,,,,,,,,,,,,,,,,,,,
1676666967.286364,1676666967.287270,13.000000,0.000000,4322.179688,4314.230957,4330.384766,4326.153809,4301.025879,4287.948730,4313.461426,4311.538574,4299.487305,4279.615234,4462.563965,4503.589844,4380.769043,4421.666504,3106.000000,3.000000,72.000000,,,,0.000000,4.000000,4.000000,4.000000,4.000000,4.000000,4.000000,4.000000,4.000000,4.000000,4.000000,4.000000,4.000000,4.000000,4.000000,100.000000,,,,,,,,,,,,,,,,,,,,,,,,,,,,,,,,,,,,,,,,,,,,,,,,,,,,,,,,,,,,,,,,,,,,,,,,,,,,,,,,,,,,,,
1676666967.294172,1676666967.295178,14.000000,0.000000,4319.743652,4312.948730,4321.666504,4314.358887,4296.794922,4281.538574,4298.846191,4299.487305,4291.922852,4278.461426,4461.025879,4492.436035,4368.717773,4415.000000,2321.000000,3.000000,72.000000,,,,0.000000,4.000000,4.000000,4.000000,4.000000,4.000000,4.000000,4.000000,4.000000,4.000000,4.000000,4.000000,4.000000,4.000000,4.000000,100.000000,,,,,,,,,,,,,,,,,,,,,,,,,,,,,,,,,,,,,,,,,,,,,,,,,,,,,,,,,,,,,,,,,,,,,,,,,,,,,,,,,,,,,,
1676666967.301980,1676666967.302986,15.000000,0.000000,4316.794922,4311.666504,4318.846191,4319.743652,4298.846191,4290.384766,4306.538574,4307.307617,4295.384766,4275.641113,4447.179688,4492.051270,4366.666504,4414.487305,2777.000000,3.000000,72.000000,,,,0.000000,4.000000,4.000000,4.000000,4.000000,4.000000,4.000000,4.000000,4.000000,4.000000,4.000000,4.000000,4.000000,4.000000,4.000000,100.000000,,,,,,,,,,,,,,,,,,,,,,,,,,,,,,,,,,,,,,,,,,,,,,,,,,,,,,,,,,,,,,,,,,,,,,,,,,,,,,,,,,,,,,
1676666967.309789,1676666967.310695,16.000000,0.000000,4311.153809,4305.512695,4314.615234,4299.358887,4299.871582,4299.102539,4309.230957,4310.000000,4298.846191,4268.333496,4440.384766,4480.384766,4367.692383,4412.820313,0.000000,3.000000,72.000000,,,,0.000000,4.000000,4.000000,4.000000,4.000000,4.000000,4.000000,4.000000,4.000000,4.000000,4.000000,4.000000,4.000000,4.000000,4.000000,100.000000,,,,,,,,,,,,,,,,,,,,,,,,,,,,,,,,,,,,,,,,,,,,,,,,,,,,,,,,,,,,,,,,,,,,,,,,,,,,,,,,,,,,,,
1676666967.317597,1676666967.318503,17.000000,0.000000,4298.974121,4293.846191,4298.717773,4290.128418,4302.436035,4297.436035,4295.000000,4292.820313,4285.256348,4264.230957,4444.743652,4458.461426,4356.922852,4395.512695,0.000000,3.000000,72.000000,,,,0.000000,4.000000,4.000000,4.000000,4.000000,4.000000,4.000000,4.000000,4.000000,4.000000,4.000000,4.000000,4.000000,4.000000,4.000000,100.000000,,,,,,,,,,,,,,,,,,,,,,,,,,,,,,,,,,,,,,,,,,,,,,,,,,,,,,,,,,,,,,,,,,,,,,,,,,,,,,,,,,,,,,
1676666967.325405,1676666967.326212,18.000000,0.000000,4292.948730,4289.358887,4290.128418,4320.641113,4308.846191,4293.717773,4287.307617,4285.641113,4275.000000,4264.871582,4443.077148,4452.820313,4348.077148,4388.589844,0.000000,3.000000,72.000000,,,,0.000000,4.000000,4.000000,4.000000,4.000000,4.000000,4.000000,4.000000,4.000000,4.000000,4.000000,4.000000,4.000000,4.000000,4.000000,100.000000,,,,,,,,,,,,,,,,,,,,,,,,,,,,,,,,,,,,,,,,,,,,,,,,,,,,,,,,,,,,,,,,,,,,,,,,,,,,,,,,,,,,,,
1676666967.333214,1676666967.334020,19.000000,0.000000,4299.358887,4299.358887,4296.025879,4313.974121,4309.230957,4296.025879,4287.051270,4293.974121,4279.615234,4267.948730,4439.615234,4468.333496,4361.410156,4401.794922,0.000000,3.000000,72.000000,,,,0.000000,4.000000,4.000000,4.000000,4.000000,4.000000,4.000000,4.000000,4.000000,4.000000,4.000000,4.000000,4.000000,4.000000,4.000000,100.000000,,,,,,,,,,,,,,,,,,,,,,,,,,,,,,,,,,,,,,,,,,,,,,,,,,,,,,,,,,,,,,,,,,,,,,,,,,,,,,,,,,,,,,
1676666967.341022,1676666967.341729,20.000000,0.000000,4310.128418,4302.692383,4305.512695,4288.205078,4307.436035,4295.641113,4287.436035,4295.000000,4283.846191,4276.025879,4454.102539,4483.077148,4382.307617,4412.436035,0.000000,3.000000,72.000000,,,,0.000000,4.000000,4.000000,4.000000,4.000000,4.000000,4.000000,4.000000,4.000000,4.000000,4.000000,4.000000,4.000000,4.000000,4.000000,100.000000,,,,,,,,,,,,,,,,,,,,,,,,,,,,,,,,,,,,,,,,,,,,,,,,,,,,,,,,,,,,,,,,,,,,,,,,,,,,,,,,,,,,,,
1676666967.348831,1676666967.349537,21.000000,0.000000,4320.512695,4309.230957,4319.230957,4309.743652,4305.128418,4285.769043,4285.256348,4291.153809,4286.666504,4280.384766,4464.743652,4491.666504,4387.692383,4422.436035,0.000000,3.000000,72.000000,,,,0.000000,4.000000,4.000000,4.000000,4.000000,4.000000,4.000000,4.000000,4.000000,4.000000,4.000000,4.000000,4.000000,4.000000,4.000000,100.000000,,,,,,,,,,,,,,,,,,,,,,,,,,,,,,,,,,,,,,,,,,,,,,,,,,,,,,,,,,,,,,,,,,,,,,,,,,,,,,,,,,,,,,
1676666967.356639,1676666967.357246,22.000000,0.000000,4324.615234,4341.025879,4330.512695,4331.666504,4299.102539,4278.461426,4280.897461,4293.077148,4293.589844,4277.820313,4448.846191,4495.512695,4385.128418,4428.589844,0.000000,3.000000,72.000000,,,,0.000000,4.000000,4.000000,4.000000,4.000000,4.000000,4.000000,4.000000,4.000000,4.000000,4.000000,4.000000,4.000000,4.000000,4.000000,100.000000,,,,,,,,,,,,,,,,,,,,,,,,,,,,,,,,,,,,,,,,,,,,,,,,,,,,,,,,,,,,,,,,,,,,,,,,,,,,,,,,,,,,,,
1676666967.364447,1676666967.365054,23.000000,0.000000,4316.666504,4360.000000,4325.769043,4315.512695,4297.692383,4280.256348,4283.461426,4295.641113,4296.410156,4282.948730,4448.077148,4493.974121,4382.436035,4418.717773,0.000000,3.000000,72.000000,,,,0.000000,4.000000,4.000000,4.000000,4.000000,4.000000,4.000000,4.000000,4.000000,4.000000,4.000000,4.000000,4.000000,4.000000,4.000000,100.000000,,,,,,,,,,,,,,,,,2.359518,5.330083,1.221718,0.322168,0.251054,1.739573,4.681523,1.178220,0.320780,0.418681,1.964550,4.999964,1.181062,0.496388,0.187428,0.375924,1.334748,0.884738,0.856814,1.338377,1.311213,0.718785,0.201907,0.171564,0.170694,1.074242,1.613178,0.774758,0.244615,0.143859,1.335115,5.955824,1.023517,0.810415,0.717456,0.500159,2.938421,0.705416,0.324210,0.172276,1.102332,2.740883,1.171436,0.256325,0.055763,1.326949,1.149819,0.750096,0.454286,0.272189,0.771243,1.186482,0.671244,0.878288,0.532841,2.363408,3.542055,1.203474,0.866497,0.359832,1.535958,3.054746,1.227903,0.487882,0.459024,1.889217,4.848404,1.910554,0.801305,0.270571
1676666967.372256,1676666967.372763,24.000000,0.000000,4312.051270,4349.102539,4312.948730,4303.077148,4302.307617,4283.333496,4295.384766,4299.743652,4296.922852,4288.846191,4472.179688,4494.487305,4381.410156,4413.461426,0.000000,3.000000,72.000000,,,,0.000000,4.000000,4.000000,4.000000,4.000000,4.000000,4.000000,4.000000,4.000000,4.000000,4.000000,4.000000,4.000000,4.000000,4.000000,100.000000,,,,,,,,,,,,,,,,,,,,,,,,,,,,,,,,,,,,,,,,,,,,,,,,,,,,,,,,,,,,,,,,,,,,,,,,,,,,,,,,,,,,,,
1676666967.380064,1676666967.380571,25.000000,0.000000,4315.000000,4337.179688,4308.846191,4311.282227,4302.563965,4281.666504,4298.461426,4305.384766,4298.461426,4283.846191,4471.282227,4494.743652,4391.666504,4414.615234,0.000000,3.000000,72.000000,,,,0.000000,4.000000,4.000000,4.000000,4.000000,4.000000,4.000000,4.000000,4.000000,4.000000,4.000000,4.000000,4.000000,4.000000,4.000000,100.000000,,,,,,,,,,,,,,,,,,,,,,,,,,,,,,,,,,,,,,,,,,,,,,,,,,,,,,,,,,,,,,,,,,,,,,,,,,,,,,,,,,,,,,
1676666967.387872,1676666967.388280,26.000000,0.000000,4316.025879,4334.615234,4312.692383,4309.487305,4300.769043,4287.179688,4301.666504,4308.461426,4299.615234,4281.666504,4454.487305,4493.717773,4399.615234,4411.410156,0.000000,3.000000,72.000000,,,,0.000000,4.000000,4.000000,4.000000,4.000000,4.000000,4.000000,4.000000,4.000000,4.000000,4.000000,4.000000,4.000000,4.000000,4.000000,100.000000,,,,,,,,,,,,,,,,,,,,,,,,,,,,,,,,,,,,,,,,,,,,,,,,,,,,,,,,,,,,,,,,,,,,,,,,,,,,,,,,,,,,,,
1676666967.395681,1676666967.396088,27.000000,0.000000,4309.871582,4325.769043,4306.153809,4301.922852,4306.666504,4301.025879,4307.563965,4304.230957,4293.333496,4279.615234,4456.922852,4485.000000,4391.794922,4417.563965,0.000000,3.000000,72.000000,,,,0.000000,4.000000,4.000000,4.000000,4.000000,4.000000,4.000000,4.000000,4.000000,4.000000,4.000000,4.000000,4.000000,4.000000,4.000000,100.000000,,,,,,,,,,,,,,,,,,,,,,,,,,,,,,,,,,,,,,,,,,,,,,,,,,,,,,,,,,,,,,,,,,,,,,,,,,,,,,,,,,,,,,
1676666967.403489,1676666967.403797,28.000000,0.000000,4299.487305,4314.615234,4296.025879,4312.307617,4316.794922,4311.153809,4307.948730,4300.512695,4281.922852,4269.743652,4453.333496,4473.461426,4378.974121,4424.487305,0.000000,3.000000,72.000000,,,,0.000000,4.000000,4.000000,4.000000,4.000000,4.000000,4.000000,4.000000,4.000000,4.000000,4.000000,4.000000,4.000000,4.000000,4.000000,100.000000,,,,,,,,,,,,,,,,,,,,,,,,,,,,,,,,,,,,,,,,,,,,,,,,,,,,,,,,,,,,,,,,,,,,,,,,,,,,,,,,,,,,,,
1676666967.411297,1676666967.411705,29.000000,0.000000,4298.717773,4316.153809,4299.102539,4322.820313,4324.358887,4315.384766,4310.512695,4302.436035,4285.641113,4271.410156,4443.205078,4474.615234,4378.846191,4415.128418,0.000000,3.000000,72.000000,,,,0.000000,4.000000,4.000000,4.000000,4.000000,4.000000,4.000000,4.000000,4.000000,4.000000,4.000000,4.000000,4.000000,4.000000,4.000000,100.000000,,,,,,,,,,,,,,,,,,,,,,,,,,,,,,,,,,,,,,,,,,,,,,,,,,,,,,,,,,,,,,,,,,,,,,,,,,,,,,,,,,,,,,
1676666967.419106,1676666967.419514,30.000000,0.000000,4306.025879,4317.051270,4301.153809,4316.794922,4324.102539,4310.384766,4305.128418,4298.974121,4295.384766,4283.205078,4448.205078,4476.538574,4388.461426,4408.846191,0.000000,3.000000,72.000000,,,,0.000000,4.000000,4.000000,4.000000,4.000000,4.000000,4.000000,4.000000,4.000000,4.000000,4.000000,4.000000,4.000000,4.000000,4.000000,100.000000,,,,,,,,,,,,,,,,,,,,,,,,,,,,,,,,,,,,,,,,,,,,,,,,,,,,,,,,,,,,,,,,,,,,,,,,,,,,,,,,,,,,,,
1676666967.426914,1676666967.427422,31.000000,0.000000,4309.487305,4311.410156,4295.512695,4311.410156,4318.717773,4300.641113,4295.256348,4294.230957,4289.487305,4279.615234,4460.769043,4474.743652,4384.615234,4418.974121,0.000000,3.000000,72.000000,,,,0.000000,4.000000,4.000000,4.000000,4.000000,4.000000,4.000000,4.000000,4.000000,4.000000,4.000000,4.000000,4.000000,4.000000,4.000000,100.000000,,,,,,,,,,,,,,,,,,,,,,,,,,,,,,,,,,,,,,,,,,,,,,,,,,,,,,,,,,,,,,,,,,,,,,,,,,,,,,,,,,,,,,
1676666967.434723,1676666967.435231,32.000000,0.000000,4313.077148,4314.615234,4299.615234,4320.000000,4319.102539,4294.358887,4294.102539,4296.666504,4285.641113,4273.846191,4459.358887,4481.538574,4380.000000,4427.179688,0.000000,3.000000,72.000000,,,,0.000000,4.000000,4.000000,4.000000,4.000000,4.000000,4.000000,4.000000,4.000000,4.000000,4.000000,4.000000,4.000000,4.000000,4.000000,100.000000,,,,,,,,,,,,,,,,,,,,,,,,,,,,,,,,,,,,,,,,,,,,,,,,,,,,,,,,,,,,,,,,,,,,,,,,,,,,,,,,,,,,,,
1676666967.442531,1676666967.443139,33.000000,0.000000,4319.615234,4326.153809,4310.769043,4321.538574,4320.384766,4293.717773,4297.179688,4299.743652,4296.025879,4279.743652,4445.897461,4490.512695,4393.974121,4427.179688,0.000000,3.000000,72.000000,,,,0.000000,4.000000,4.000000,4.000000,4.000000,4.000000,4.000000,4.000000,4.000000,4.000000,4.000000,4.000000,4.000000,4.000000,4.000000,100.000000,,,,,,,,,,,,,,,,,,,,,,,,,,,,,,,,,,,,,,,,,,,,,,,,,,,,,,,,,,,,,,,,,,,,,,,,,,,,,,,,,,,,,,
1676666967.450339,1676666967.450947,34.000000,0.000000,4321.153809,4327.307617,4318.077148,4306.666504,4318.846191,4296.410156,4309.871582,4307.179688,4298.974121,4280.769043,4449.230957,4497.436035,4406.282227,4426.666504,0.000000,3.000000,72.000000,,,,0.000000,4.000000,4.000000,4.000000,4.000000,4.000000,4.000000,4.000000,4.000000,4.000000,4.000000,4.000000,4.000000,4.000000,4.000000,100.000000,,,,,,,,,,,,,,,,,,,,,,,,,,,,,,,,,,,,,,,,,,,,,,,,,,,,,,,,,,,,,,,,,,,,,,,,,,,,,,,,,,,,,,
1676666967.458148,1676666967.458856,35.000000,0.000000,4322.307617,4315.641113,4325.897461,4305.128418,4319.358887,4299.871582,4327.436035,4316.922852,4293.974121,4282.307617,4466.025879,4507.563965,4400.128418,4428.589844,0.000000,3.000000,72.000000,,,,0.000000,4.000000,4.000000,4.000000,4.000000,4.000000,4.000000,4.000000,4.000000,4.000000,4.000000,4.000000,4.000000,4.000000,4.000000,100.000000,,,,,,,,,,,,,,,,,,,,,,,,,,,,,,,,,,,,,,,,,,,,,,,,,,,,,,,,,,,,,,,,,,,,,,,,,,,,,,,,,,,,,,
1676666967.465956,1676666967.466664,36.000000,0.000000,4328.717773,4305.641113,4330.512695,4313.333496,4317.307617,4304.871582,4328.333496,4315.512695,4296.666504,4292.179688,4466.282227,4515.897461,4397.051270,4437.051270,0.000000,3.000000,72.000000,,,,0.000000,4.000000,4.000000,4.000000,4.000000,4.000000,4.000000,4.000000,4.000000,4.000000,4.000000,4.000000,4.000000,4.000000,4.000000,100.000000,,,,,,,,,,,,,,,,,,,,,,,,,,,,,,,,,,,,,,,,,,,,,,,,,,,,,,,,,,,,,,,,,,,,,,,,,,,,,,,,,,,,,,
1676666967.473764,1676666967.474572,37.000000,0.000000,4327.307617,4296.410156,4331.025879,4309.743652,4313.205078,4310.128418,4317.436035,4312.051270,4299.230957,4291.410156,4454.615234,4511.410156,4402.948730,4439.487305,0.000000,3.000000,72.000000,,,,0.000000,4.000000,4.000000,4.000000,4.000000,4.000000,4.000000,4.000000,4.000000,4.000000,4.000000,4.000000,4.000000,4.000000,4.000000,100.000000,,,,,,,,,,,,,,,,,,,,,,,,,,,,,,,,,,,,,,,,,,,,,,,,,,,,,,,,,,,,,,,,,,,,,,,,,,,,,,,,,,,,,,
1676666967.481573,1676666967.482381,38.000000,0.000000,4319.230957,4290.000000,4328.205078,4308.846191,4315.000000,4310.512695,4315.512695,4312.436035,4295.897461,4281.410156,4457.179688,4499.358887,4394.615234,4430.897461,0.000000,3.000000,72.000000,,,,0.000000,4.000000,4.000000,4.000000,4.000000,4.000000,4.000000,4.000000,4.000000,4.000000,4.000000,4.000000,4.000000,4.000000,4.000000,100.000000,,,,,,,,,,,,,,,,,,,,,,,,,,,,,,,,,,,,,,,,,,,,,,,,,,,,,,,,,,,,,,,,,,,,,,,,,,,,,,,,,,,,,,
1676666967.489381,1676666967.490289,39.000000,0.000000,4317.820313,4292.692383,4318.077148,4318.717773,4316.794922,4302.563965,4311.666504,4308.974121,4294.358887,4280.256348,4465.384766,4492.051270,4386.410156,4426.153809,0.000000,3.000000,72.000000,,,,0.000000,4.000000,4.000000,4.000000,4.000000,4.000000,4.000000,4.000000,4.000000,4.000000,4.000000,4.000000,4.000000,4.000000,4.000000,100.000000,1.000000,83.333336,4.000000,4.000000,4.000000,2.000000,4.000000,4.000000,4.000000,4.000000,4.000000,4.000000,4.000000,4.000000,4.000000,4.000000,2.591570,4.229890,1.062769,0.368069,0.269978,2.776715,3.918669,1.385874,0.525962,0.448910,2.393458,3.832571,1.262443,0.595456,0.212875,0.397895,1.160659,0.692203,0.723617,1.293376,1.196271,0.622365,0.232033,0.186261,0.165696,1.032454,1.455144,0.566732,0.216108,0.131184,1.557319,5.364129,0.751890,0.858629,0.659055,0.419933,2.784888,0.779493,0.344209,0.172162,1.342232,3.077338,1.221593,0.284110,0.047251,1.740735,1.505186,0.810836,0.478900,0.237078,0.973517,1.263904,0.816761,0.897721,0.519119,2.832101,3.072681,1.295350,1.060019,0.352710,1.860359,2.606137,1.164860,0.541140,0.439461,2.001562,4.039608,2.133977,0.948487,0.267853
1676666967.497189,1676666967.498098,40.000000,0.000000,4319.230957,4290.769043,4310.000000,4311.410156,4313.333496,4293.077148,4297.436035,4305.000000,4296.922852,4287.179688,4460.128418,4493.974121,4400.000000,4428.461426,0.000000,3.000000,72.000000,,,,0.000000,4.000000,4.000000,4.000000,4.000000,4.000000,4.000000,4.000000,4.000000,4.000000,4.000000,4.000000,4.000000,4.000000,4.000000,100.000000,,,,,,,,,,,,,,,,,,,,,,,,,,,,,,,,,,,,,,,,,,,,,,,,,,,,,,,,,,,,,,,,,,,,,,,,,,,,,,,,,,,,,,
1676666967.504998,1676666967.505806,41.000000,0.000000,4318.974121,4285.128418,4311.025879,4295.897461,4316.282227,4296.666504,4303.589844,4309.230957,4297.563965,4294.230957,4455.897461,4504.615234,4412.692383,4429.102539,0.000000,3.000000,72.000000,,,,0.000000,4.000000,4.000000,4.000000,4.000000,4.000000,4.000000,4.000000,4.000000,4.000000,4.000000,4.000000,4.000000,4.000000,4.000000,100.000000,,,,,,,,,,,,,,,,,,,,,,,,,,,,,,,,,,,,,,,,,,,,,,,,,,,,,,,,,,,,,,,,,,,,,,,,,,,,,,,,,,,,,,
1676666967.512806,1676666967.513615,42.000000,0.000000,4320.384766,4291.153809,4312.307617,4297.563965,4326.410156,4308.461426,4326.410156,4313.974121,4294.871582,4297.179688,4460.128418,4503.846191,4406.153809,4428.461426,0.000000,3.000000,72.000000,,,,0.000000,4.000000,4.000000,4.000000,4.000000,4.000000,4.000000,4.000000,4.000000,4.000000,4.000000,4.000000,4.000000,4.000000,4.000000,100.000000,,,,,,,,,,,,,,,,,,,,,,,,,,,,,,,,,,,,,,,,,,,,,,,,,,,,,,,,,,,,,,,,,,,,,,,,,,,,,,,,,,,,,,
1676666967.520615,1676666967.521323,43.000000,0.000000,4318.333496,4300.000000,4310.128418,4304.743652,4328.846191,4306.282227,4311.153809,4303.333496,4294.358887,4287.051270,4458.589844,4484.487305,4394.871582,4425.512695,0.000000,3.000000,72.000000,,,,0.000000,4.000000,4.000000,4.000000,4.000000,4.000000,4.000000,4.000000,4.000000,4.000000,4.000000,4.000000,4.000000,4.000000,4.000000,100.000000,,,,,,,,,,,,,,,,,,,,,,,,,,,,,,,,,,,,,,,,,,,,,,,,,,,,,,,,,,,,,,,,,,,,,,,,,,,,,,,,,,,,,,
1676666967.528423,1676666967.529132,44.000000,0.000000,4314.487305,4288.589844,4308.974121,4315.641113,4324.871582,4292.436035,4276.922852,4291.410156,4296.282227,4279.487305,4452.948730,4475.641113,4393.205078,4420.256348,0.000000,3.000000,72.000000,,,,0.000000,4.000000,4.000000,4.000000,4.000000,4.000000,4.000000,4.000000,4.000000,4.000000,4.000000,4.000000,4.000000,4.000000,4.000000,100.000000,,,,,,,,,,,,,,,,,,,,,,,,,,,,,,,,,,,,,,,,,,,,,,,,,,,,,,,,,,,,,,,,,,,,,,,,,,,,,,,,,,,,,,
1676666967.536231,1676666967.536840,45.000000,0.000000,4317.051270,4277.820313,4309.615234,4325.128418,4322.820313,4289.615234,4284.358887,4295.256348,4295.000000,4287.436035,4455.384766,4486.282227,4400.512695,4422.436035,0.000000,3.000000,72.000000,,,,0.000000,4.000000,4.000000,4.000000,4.000000,4.000000,4.000000,4.000000,4.000000,4.000000,4.000000,4.000000,4.000000,4.000000,4.000000,100.000000,,,,,,,,,,,,,,,,,,,,,,,,,,,,,,,,,,,,,,,,,,,,,,,,,,,,,,,,,,,,,,,,,,,,,,,,,,,,,,,,,,,,,,
1676666967.544040,1676666967.544649,46.000000,0.000000,4320.897461,4290.769043,4311.922852,4315.128418,4324.358887,4295.000000,4302.948730,4302.820313,4294.615234,4294.487305,4457.692383,4492.563965,4411.794922,4430.769043,0.000000,3.000000,72.000000,,,,0.000000,4.000000,4.000000,4.000000,4.000000,4.000000,4.000000,4.000000,4.000000,4.000000,4.000000,4.000000,4.000000,4.000000,4.000000,100.000000,,,,,,,,,,,,,,,,,,,,,,,,,,,,,,,,,,,,,,,,,,,,,,,,,,,,,,,,,,,,,,,,,,,,,,,,,,,,,,,,,,,,,,
1676666967.551848,1676666967.552357,47.000000,0.000000,4323.077148,4301.410156,4316.538574,4308.077148,4323.589844,4294.102539,4302.563965,4306.666504,4302.948730,4293.974121,4461.282227,4494.871582,4414.358887,4440.256348,0.000000,3.000000,72.000000,,,,0.000000,4.000000,4.000000,4.000000,4.000000,4.000000,4.000000,4.000000,4.000000,4.000000,4.000000,4.000000,4.000000,4.000000,4.000000,100.000000,,,,,,,,,,,,,,,,,,,,,,,,,,,,,,,,,,,,,,,,,,,,,,,,,,,,,,,,,,,,,,,,,,,,,,,,,,,,,,,,,,,,,,
1676666967.559657,1676666967.560166,48.000000,0.000000,4325.384766,4294.743652,4322.436035,4314.102539,4320.000000,4292.820313,4311.538574,4312.820313,4310.641113,4299.230957,4474.487305,4507.436035,4413.846191,4448.846191,0.000000,3.000000,72.000000,,,,0.000000,4.000000,4.000000,4.000000,4.000000,4.000000,4.000000,4.000000,4.000000,4.000000,4.000000,4.000000,4.000000,4.000000,4.000000,100.000000,,,,,,,,,,,,,,,,,,,,,,,,,,,,,,,,,,,,,,,,,,,,,,,,,,,,,,,,,,,,,,,,,,,,,,,,,,,,,,,,,,,,,,
1676666967.567465,1676666967.567874,49.000000,0.000000,4318.589844,4279.871582,4322.563965,4305.512695,4320.384766,4294.743652,4320.769043,4317.692383,4306.538574,4300.897461,4474.358887,4510.512695,4414.743652,4442.948730,0.000000,3.000000,72.000000,,,,0.000000,4.000000,4.000000,4.000000,4.000000,4.000000,4.000000,4.000000,4.000000,4.000000,4.000000,4.000000,4.000000,4.000000,4.000000,100.000000,,,,,,,,,,,,,,,,,,,,,,,,,,,,,,,,,,,,,,,,,,,,,,,,,,,,,,,,,,,,,,,,,,,,,,,,,,,,,,,,,,,,,,
1676666967.575273,1676666967.575783,50.000000,0.000000,4304.230957,4267.820313,4307.436035,4291.922852,4320.384766,4299.230957,4310.897461,4312.436035,4304.102539,4288.205078,4453.717773,4497.179688,4403.333496,4426.538574,0.000000,3.000000,72.000000,,,,0.000000,4.000000,4.000000,4.000000,4.000000,4.000000,4.000000,4.000000,4.000000,4.000000,4.000000,4.000000,4.000000,4.000000,4.000000,100.000000,,,,,,,,,,,,,,,,,,,,,,,,,,,,,,,,,,,,,,,,,,,,,,,,,,,,,,,,,,,,,,,,,,,,,,,,,,,,,,,,,,,,,,
1676666967.583082,1676666967.583591,51.000000,0.000000,4300.512695,4265.769043,4296.025879,4298.333496,4320.769043,4307.948730,4307.820313,4306.794922,4309.871582,4288.077148,4450.128418,4489.358887,4400.512695,4423.589844,0.000000,3.000000,72.000000,,,,0.000000,4.000000,4.000000,4.000000,4.000000,4.000000,4.000000,4.000000,4.000000,4.000000,4.000000,4.000000,4.000000,4.000000,4.000000,100.000000,,,,,,,,,,,,,,,,,,,,,,,,,,,,,,,,,,,,,,,,,,,,,,,,,,,,,,,,,,,,,,,,,,,,,,,,,,,,,,,,,,,,,,
1676666967.590890,1676666967.591499,52.000000,0.000000,4306.794922,4265.256348,4306.025879,4316.282227,4325.384766,4313.974121,4317.563965,4311.538574,4315.256348,4303.205078,4469.230957,4491.025879,4412.051270,4431.282227,0.000000,3.000000,72.000000,,,,0.000000,4.000000,4.000000,4.000000,4.000000,4.000000,4.000000,4.000000,4.000000,4.000000,4.000000,4.000000,4.000000,4.000000,4.000000,100.000000,,,,,,,,,,,,,,,,,,,,,,,,,,,,,,,,,,,,,,,,,,,,,,,,,,,,,,,,,,,,,,,,,,,,,,,,,,,,,,,,,,,,,,
1676666967.598698,1676666967.599308,53.000000,0.000000,4311.025879,4267.179688,4316.794922,4323.846191,4326.666504,4312.948730,4325.769043,4320.641113,4316.666504,4306.794922,4476.922852,4496.153809,4411.794922,4431.794922,0.000000,3.000000,72.000000,,,,0.000000,4.000000,4.000000,4.000000,4.000000,4.000000,4.000000,4.000000,4.000000,4.000000,4.000000,4.000000,4.000000,4.000000,4.000000,100.000000,,,,,,,,,,,,,,,,,,,,,,,,,,,,,,,,,,,,,,,,,,,,,,,,,,,,,,,,,,,,,,,,,,,,,,,,,,,,,,,,,,,,,,
1676666967.606506,1676666967.607216,54.000000,0.000000,4311.666504,4278.205078,4311.025879,4322.307617,4323.589844,4305.000000,4318.974121,4320.000000,4316.025879,4302.307617,4464.615234,4498.461426,4412.820313,4430.384766,0.000000,3.000000,72.000000,,,,0.000000,4.000000,4.000000,4.000000,4.000000,4.000000,4.000000,4.000000,4.000000,4.000000,4.000000,4.000000,4.000000,4.000000,4.000000,100.000000,,,,,,,,,,,,,,,,,,,,,,,,,,,,,,,,,,,,,,,,,,,,,,,,,,,,,,,,,,,,,,,,,,,,,,,,,,,,,,,,,,,,,,
1676666967.614315,1676666967.615025,55.000000,0.000000,4314.358887,4285.000000,4310.512695,4318.717773,4324.743652,4295.897461,4304.230957,4308.846191,4310.512695,4301.282227,4458.333496,4497.307617,4415.128418,4433.461426,0.000000,3.000000,72.000000,,,,0.000000,4.000000,4.000000,4.000000,4.000000,4.000000,4.000000,4.000000,4.000000,4.000000,4.000000,4.000000,4.000000,4.000000,4.000000,100.000000,,,,,,,,,,,,,,,,,2.739572,3.123903,0.951223,0.433929,0.283053,4.496110,3.317952,1.894578,0.801486,0.494687,2.857786,2.804431,1.407962,0.711860,0.239413,0.429082,0.958544,0.595453,0.602298,1.296296,1.216881,0.578785,0.275048,0.203053,0.155798,0.986236,1.361681,0.381255,0.185686,0.127674,1.843451,4.756189,0.514036,0.890937,0.599067,0.381232,2.597499,0.812383,0.366293,0.178654,1.569740,3.285179,1.194297,0.311753,0.042773,2.191884,1.798290,0.842393,0.502106,0.209195,1.277678,1.293373,0.935882,0.898282,0.536206,3.489895,2.702097,1.396393,1.226120,0.341587,2.267347,2.162171,1.154824,0.579319,0.416435,2.250093,3.204681,2.331624,1.073892,0.263248
1676666967.622123,1676666967.622933,56.000000,0.000000,4313.333496,4275.512695,4313.333496,4306.538574,4323.589844,4292.820313,4299.871582,4301.410156,4300.769043,4290.897461,4462.692383,4492.051270,4399.358887,4426.153809,0.000000,3.000000,72.000000,,,,0.000000,4.000000,4.000000,4.000000,4.000000,4.000000,4.000000,4.000000,4.000000,4.000000,4.000000,4.000000,4.000000,4.000000,4.000000,100.000000,,,,,,,,,,,,,,,,,,,,,,,,,,,,,,,,,,,,,,,,,,,,,,,,,,,,,,,,,,,,,,,,,,,,,,,,,,,,,,,,,,,,,,
1676666967.629932,1676666967.630741,57.000000,0.000000,4301.538574,4264.615234,4300.641113,4292.179688,4315.384766,4294.230957,4302.179688,4294.743652,4292.436035,4275.128418,4453.077148,4473.461426,4387.307617,4407.436035,0.000000,3.000000,72.000000,,,,0.000000,4.000000,4.000000,4.000000,4.000000,4.000000,4.000000,4.000000,4.000000,4.000000,4.000000,4.000000,4.000000,4.000000,4.000000,100.000000,,,,,,,,,,,,,,,,,,,,,,,,,,,,,,,,,,,,,,,,,,,,,,,,,,,,,,,,,,,,,,,,,,,,,,,,,,,,,,,,,,,,,,
1676666967.637740,1676666967.638650,58.000000,0.000000,4292.436035,4261.282227,4289.230957,4299.487305,4313.589844,4295.641113,4305.384766,4291.282227,4287.820313,4275.256348,4438.461426,4460.384766,4390.384766,4399.615234,0.000000,3.000000,72.000000,,,,0.000000,4.000000,4.000000,4.000000,4.000000,4.000000,4.000000,4.000000,4.000000,4.000000,4.000000,4.000000,4.000000,4.000000,4.000000,100.000000,,,,,,,,,,,,,,,,,,,,,,,,,,,,,,,,,,,,,,,,,,,,,,,,,,,,,,,,,,,,,,,,,,,,,,,,,,,,,,,,,,,,,,
1676666967.645548,1676666967.646458,59.000000,0.000000,4297.948730,4260.897461,4297.948730,4317.948730,4321.153809,4298.974121,4314.743652,4299.615234,4292.179688,4284.487305,4447.820313,4473.461426,4390.897461,4407.692383,0.000000,3.000000,72.000000,,,,0.000000,4.000000,4.000000,4.000000,4.000000,4.000000,4.000000,4.000000,4.000000,4.000000,4.000000,4.000000,4.000000,4.000000,4.000000,100.000000,,,,,,,,,,,,,,,,,,,,,,,,,,,,,,,,,,,,,,,,,,,,,,,,,,,,,,,,,,,,,,,,,,,,,,,,,,,,,,,,,,,,,,
1676666967.653357,1676666967.654367,60.000000,0.000000,4308.717773,4270.769043,4312.436035,4320.384766,4325.641113,4297.563965,4312.563965,4306.794922,4303.974121,4297.436035,4470.512695,4490.512695,4402.307617,4419.487305,0.000000,3.000000,72.000000,,,,0.000000,4.000000,4.000000,4.000000,4.000000,4.000000,4.000000,4.000000,4.000000,4.000000,4.000000,4.000000,4.000000,4.000000,4.000000,100.000000,,,,,,,,,,,,,,,,,,,,,,,,,,,,,,,,,,,,,,,,,,,,,,,,,,,,,,,,,,,,,,,,,,,,,,,,,,,,,,,,,,,,,,
1676666967.661165,1676666967.662175,61.000000,0.000000,4316.794922,4283.974121,4318.846191,4317.179688,4323.974121,4292.820313,4300.128418,4308.077148,4313.974121,4310.512695,4476.794922,4493.205078,4420.897461,4430.897461,0.000000,3.000000,72.000000,,,,0.000000,4.000000,4.000000,4.000000,4.000000,4.000000,4.000000,4.000000,4.000000,4.000000,4.000000,4.000000,4.000000,4.000000,4.000000,100.000000,,,,,,,,,,,,,,,,,,,,,,,,,,,,,,,,,,,,,,,,,,,,,,,,,,,,,,,,,,,,,,,,,,,,,,,,,,,,,,,,,,,,,,
1676666967.668974,1676666967.670083,62.000000,0.000000,4317.307617,4276.666504,4319.358887,4319.871582,4325.769043,4298.717773,4305.256348,4312.436035,4313.717773,4308.205078,4465.384766,4488.717773,4417.436035,4426.153809,0.000000,3.000000,72.000000,,,,0.000000,4.000000,4.000000,4.000000,4.000000,4.000000,4.000000,4.000000,4.000000,4.000000,4.000000,4.000000,4.000000,4.000000,4.000000,100.000000,,,,,,,,,,,,,,,,,,,,,,,,,,,,,,,,,,,,,,,,,,,,,,,,,,,,,,,,,,,,,,,,,,,,,,,,,,,,,,,,,,,,,,
1676666967.676782,1676666967.677892,63.000000,0.000000,4302.692383,4258.461426,4308.333496,4314.230957,4329.358887,4310.769043,4319.358887,4311.410156,4303.205078,4288.846191,4446.410156,4476.410156,4400.128418,4403.077148,0.000000,3.000000,72.000000,,,,0.000000,4.000000,4.000000,4.000000,4.000000,4.000000,4.000000,4.000000,4.000000,4.000000,4.000000,4.000000,4.000000,4.000000,4.000000,100.000000,,,,,,,,,,,,,,,,,,,,,,,,,,,,,,,,,,,,,,,,,,,,,,,,,,,,,,,,,,,,,,,,,,,,,,,,,,,,,,,,,,,,,,
1676666967.684590,1676666967.685600,64.000000,0.000000,4295.256348,4258.461426,4295.256348,4304.871582,4328.717773,4318.589844,4321.794922,4301.666504,4295.384766,4275.897461,4437.692383,4464.871582,4391.410156,4394.358887,2494.000000,3.000000,72.000000,,,,0.000000,4.000000,4.000000,4.000000,2.000000,4.000000,4.000000,4.000000,4.000000,4.000000,4.000000,4.000000,4.000000,4.000000,4.000000,83.333336,,,,,,,,,,,,,,,,,,,,,,,,,,,,,,,,,,,,,,,,,,,,,,,,,,,,,,,,,,,,,,,,,,,,,,,,,,,,,,,,,,,,,,
1676666967.692399,1676666967.693409,65.000000,0.000000,4308.461426,4272.820313,4299.487305,4312.051270,4328.461426,4316.410156,4311.666504,4293.974121,4293.846191,4284.102539,4450.384766,4469.615234,4399.871582,4408.461426,1406.000000,3.000000,72.000000,,,,0.000000,4.000000,4.000000,4.000000,2.000000,4.000000,4.000000,4.000000,4.000000,4.000000,4.000000,4.000000,4.000000,4.000000,4.000000,83.333336,,,,,,,,,,,,,,,,,,,,,,,,,,,,,,,,,,,,,,,,,,,,,,,,,,,,,,,,,,,,,,,,,,,,,,,,,,,,,,,,,,,,,,
1676666967.700207,1676666967.701117,66.000000,0.000000,4322.948730,4280.256348,4316.410156,4314.871582,4329.358887,4305.897461,4297.820313,4293.717773,4294.871582,4293.717773,4466.538574,4481.153809,4410.897461,4420.897461,2251.000000,3.000000,72.000000,,,,0.000000,4.000000,4.000000,4.000000,2.000000,4.000000,4.000000,4.000000,4.000000,4.000000,4.000000,4.000000,4.000000,4.000000,4.000000,83.333336,,,,,,,,,,,,,,,,,,,,,,,,,,,,,,,,,,,,,,,,,,,,,,,,,,,,,,,,,,,,,,,,,,,,,,,,,,,,,,,,,,,,,,
1676666967.708015,1676666967.709026,67.000000,0.000000,4332.179688,4277.436035,4332.563965,4314.102539,4327.948730,4295.512695,4295.256348,4296.794922,4296.538574,4294.615234,4465.512695,4489.615234,4416.538574,4427.051270,2364.000000,3.000000,72.000000,,,,0.000000,4.000000,4.000000,4.000000,2.000000,4.000000,4.000000,4.000000,4.000000,4.000000,4.000000,4.000000,4.000000,4.000000,4.000000,83.333336,,,,,,,,,,,,,,,,,,,,,,,,,,,,,,,,,,,,,,,,,,,,,,,,,,,,,,,,,,,,,,,,,,,,,,,,,,,,,,,,,,,,,,
1676666967.715824,1676666967.716834,68.000000,0.000000,4335.641113,4279.358887,4336.025879,4332.563965,4325.897461,4289.487305,4297.692383,4299.102539,4298.589844,4300.769043,4453.077148,4495.000000,4425.256348,4431.922852,2159.000000,3.000000,72.000000,,,,0.000000,4.000000,4.000000,4.000000,2.000000,4.000000,4.000000,4.000000,4.000000,4.000000,4.000000,4.000000,4.000000,4.000000,4.000000,83.333336,,,,,,,,,,,,,,,,,,,,,,,,,,,,,,,,,,,,,,,,,,,,,,,,,,,,,,,,,,,,,,,,,,,,,,,,,,,,,,,,,,,,,,
1676666967.723632,1676666967.724643,69.000000,0.000000,4330.769043,4288.974121,4327.051270,4341.666504,4326.153809,4289.230957,4296.025879,4296.153809,4298.589844,4304.743652,4460.641113,4493.205078,4425.641113,4432.307617,2259.000000,3.000000,72.000000,,,,0.000000,4.000000,4.000000,4.000000,2.000000,4.000000,4.000000,4.000000,4.000000,4.000000,4.000000,4.000000,4.000000,4.000000,4.000000,83.333336,,,,,,,,,,,,,,,,,,,,,,,,,,,,,,,,,,,,,,,,,,,,,,,,,,,,,,,,,,,,,,,,,,,,,,,,,,,,,,,,,,,,,,
1676666967.731440,1676666967.732351,70.000000,0.000000,4328.717773,4288.846191,4320.641113,4320.769043,4327.307617,4291.666504,4297.692383,4291.025879,4294.230957,4297.563965,4471.666504,4489.487305,4414.358887,4430.000000,2181.000000,3.000000,72.000000,,,,0.000000,4.000000,4.000000,4.000000,2.000000,4.000000,4.000000,4.000000,4.000000,4.000000,4.000000,4.000000,4.000000,4.000000,4.000000,83.333336,,,,,,,,,,,,,,,,,,,,,,,,,,,,,,,,,,,,,,,,,,,,,,,,,,,,,,,,,,,,,,,,,,,,,,,,,,,,,,,,,,,,,,
1676666967.739249,1676666967.740259,71.000000,0.000000,4329.743652,4280.256348,4318.717773,4303.077148,4333.205078,4297.051270,4310.641113,4296.538574,4295.128418,4292.051270,4456.025879,4492.179688,4411.666504,4429.230957,2306.000000,3.000000,72.000000,,,,0.000000,4.000000,4.000000,4.000000,2.000000,4.000000,4.000000,4.000000,4.000000,4.000000,4.000000,4.000000,4.000000,4.000000,4.000000,83.333336,,,,,,,,,,,,,,,,,2.815284,2.261643,0.865030,0.500376,0.283643,6.574366,3.036888,2.595305,1.090113,0.538478,3.217665,2.202715,1.500261,0.817153,0.258765,0.466253,0.761827,0.613202,0.545530,1.334917,1.348241,0.576925,0.329195,0.214241,0.140874,0.934655,1.332459,0.263272,0.165242,0.134684,2.089954,4.251464,0.352930,0.907265,0.553338,0.376740,2.452728,0.805632,0.380950,0.189286,1.711704,3.310749,1.106734,0.325641,0.044580,2.546312,1.937060,0.820965,0.512055,0.188764,1.578138,1.271456,0.986009,0.873867,0.575244,4.069169,2.601998,1.449043,1.307379,0.326480,2.584609,1.798026,1.150955,0.586914,0.393318,2.491403,2.502403,2.370904,1.128055,0.257034
1676666967.747057,1676666967.748068,72.000000,0.000000,4320.769043,4280.384766,4312.692383,4314.871582,4341.282227,4305.641113,4320.000000,4306.794922,4301.282227,4294.102539,4447.436035,4494.102539,4414.615234,4429.358887,2294.000000,3.000000,72.000000,,,,0.000000,4.000000,4.000000,4.000000,2.000000,4.000000,4.000000,4.000000,4.000000,4.000000,4.000000,4.000000,4.000000,4.000000,4.000000,83.333336,,,,,,,,,,,,,,,,,,,,,,,,,,,,,,,,,,,,,,,,,,,,,,,,,,,,,,,,,,,,,,,,,,,,,,,,,,,,,,,,,,,,,,
1676666967.754866,1676666967.755876,73.000000,0.000000,4315.641113,4281.025879,4309.358887,4324.743652,4338.461426,4309.102539,4313.333496,4305.769043,4302.051270,4294.743652,4463.717773,4492.820313,4412.692383,4426.538574,2212.000000,3.000000,72.000000,,,,0.000000,4.000000,4.000000,4.000000,2.000000,4.000000,4.000000,4.000000,4.000000,4.000000,4.000000,4.000000,4.000000,4.000000,4.000000,83.333336,,,,,,,,,,,,,,,,,,,,,,,,,,,,,,,,,,,,,,,,,,,,,,,,,,,,,,,,,,,,,,,,,,,,,,,,,,,,,,,,,,,,,,
1676666967.762674,1676666967.763585,74.000000,0.000000,4320.128418,4271.025879,4308.717773,4313.205078,4332.051270,4306.794922,4296.666504,4296.538574,4296.538574,4295.256348,4464.358887,4486.025879,4414.102539,4416.538574,2359.000000,3.000000,72.000000,,,,0.000000,4.000000,4.000000,4.000000,2.000000,4.000000,4.000000,4.000000,4.000000,4.000000,4.000000,4.000000,4.000000,4.000000,4.000000,83.333336,,,,,,,,,,,,,,,,,,,,,,,,,,,,,,,,,,,,,,,,,,,,,,,,,,,,,,,,,,,,,,,,,,,,,,,,,,,,,,,,,,,,,,
1676666967.770482,1676666967.771393,75.000000,0.000000,4318.333496,4262.692383,4302.179688,4307.436035,4331.922852,4309.743652,4299.615234,4293.974121,4295.384766,4293.589844,4448.077148,4478.205078,4410.256348,4412.436035,2782.000000,3.000000,72.000000,,,,0.000000,4.000000,4.000000,4.000000,2.000000,4.000000,4.000000,4.000000,4.000000,4.000000,4.000000,4.000000,4.000000,4.000000,4.000000,83.333336,,,,,,,,,,,,,,,,,,,,,,,,,,,,,,,,,,,,,,,,,,,,,,,,,,,,,,,,,,,,,,,,,,,,,,,,,,,,,,,,,,,,,,
1676666967.778291,1676666967.779102,76.000000,0.000000,4317.179688,4264.871582,4301.153809,4315.897461,4331.794922,4316.922852,4317.051270,4299.230957,4297.179688,4284.102539,4445.897461,4476.153809,4399.487305,4417.179688,2358.000000,3.000000,72.000000,,,,0.000000,4.000000,4.000000,4.000000,2.000000,4.000000,4.000000,4.000000,4.000000,4.000000,4.000000,4.000000,4.000000,4.000000,4.000000,83.333336,,,,,,,,,,,,,,,,,,,,,,,,,,,,,,,,,,,,,,,,,,,,,,,,,,,,,,,,,,,,,,,,,,,,,,,,,,,,,,,,,,,,,,
1676666967.786099,1676666967.786910,77.000000,0.000000,4319.615234,4266.153809,4302.692383,4319.487305,4325.512695,4313.589844,4315.000000,4297.436035,4293.589844,4280.128418,4451.025879,4475.000000,4395.512695,4414.102539,3099.000000,3.000000,72.000000,,,,0.000000,4.000000,4.000000,4.000000,2.000000,4.000000,4.000000,4.000000,4.000000,4.000000,4.000000,4.000000,4.000000,4.000000,4.000000,83.333336,,,,,,,,,,,,,,,,,,,,,,,,,,,,,,,,,,,,,,,,,,,,,,,,,,,,,,,,,,,,,,,,,,,,,,,,,,,,,,,,,,,,,,
1676666967.793907,1676666967.794619,78.000000,0.000000,4319.871582,4265.769043,4301.794922,4315.000000,4320.128418,4310.128418,4309.871582,4294.871582,4295.128418,4288.205078,4457.948730,4477.436035,4398.205078,4410.256348,2359.000000,3.000000,72.000000,,,,0.000000,4.000000,4.000000,4.000000,2.000000,4.000000,4.000000,4.000000,4.000000,4.000000,4.000000,4.000000,4.000000,4.000000,4.000000,83.333336,,,,,,,,,,,,,,,,,,,,,,,,,,,,,,,,,,,,,,,,,,,,,,,,,,,,,,,,,,,,,,,,,,,,,,,,,,,,,,,,,,,,,,
1676666967.801716,1676666967.802527,79.000000,0.000000,4323.205078,4272.692383,4306.025879,4309.615234,4317.692383,4311.794922,4311.282227,4299.102539,4299.871582,4296.410156,4462.692383,4485.384766,4402.948730,4416.282227,2782.000000,3.000000,72.000000,,,,0.000000,4.000000,4.000000,4.000000,2.000000,4.000000,4.000000,4.000000,4.000000,4.000000,4.000000,4.000000,4.000000,4.000000,4.000000,83.333336,,,,,,,,,,,,,,,,,,,,,,,,,,,,,,,,,,,,,,,,,,,,,,,,,,,,,,,,,,,,,,,,,,,,,,,,,,,,,,,,,,,,,,
1676666967.809524,1676666967.810336,80.000000,0.000000,4327.692383,4277.820313,4316.153809,4312.307617,4316.666504,4304.871582,4302.179688,4304.102539,4299.358887,4294.743652,4456.794922,4491.922852,4398.205078,4415.641113,2358.000000,3.000000,72.000000,,,,0.000000,4.000000,4.000000,4.000000,2.000000,4.000000,4.000000,4.000000,4.000000,4.000000,4.000000,4.000000,4.000000,4.000000,4.000000,83.333336,,,,,,,,,,,,,,,,,,,,,,,,,,,,,,,,,,,,,,,,,,,,,,,,,,,,,,,,,,,,,,,,,,,,,,,,,,,,,,,,,,,,,,
1676666967.817332,1676666967.818244,81.000000,0.000000,4326.922852,4275.384766,4323.589844,4324.871582,4313.205078,4300.769043,4302.307617,4305.256348,4300.000000,4286.025879,4458.846191,4493.717773,4382.692383,4411.538574,3099.000000,3.000000,72.000000,,,,0.000000,4.000000,4.000000,4.000000,2.000000,4.000000,4.000000,4.000000,4.000000,4.000000,4.000000,4.000000,4.000000,4.000000,4.000000,83.333336,,,,,,,,,,,,,,,,,,,,,,,,,,,,,,,,,,,,,,,,,,,,,,,,,,,,,,,,,,,,,,,,,,,,,,,,,,,,,,,,,,,,,,
1676666967.825141,1676666967.826152,82.000000,0.000000,4324.230957,4275.512695,4321.282227,4316.794922,4300.769043,4306.922852,4314.871582,4301.538574,4301.410156,4281.282227,4464.230957,4487.948730,4373.461426,4413.077148,2359.000000,3.000000,72.000000,,,,0.000000,4.000000,4.000000,4.000000,2.000000,4.000000,4.000000,4.000000,4.000000,4.000000,4.000000,4.000000,4.000000,4.000000,4.000000,83.333336,,,,,,,,,,,,,,,,,,,,,,,,,,,,,,,,,,,,,,,,,,,,,,,,,,,,,,,,,,,,,,,,,,,,,,,,,,,,,,,,,,,,,,
1676666967.832949,1676666967.833961,83.000000,0.000000,4320.256348,4272.563965,4313.589844,4296.794922,4293.077148,4307.563965,4306.153809,4298.717773,4297.436035,4278.846191,4457.563965,4478.077148,4371.666504,4405.384766,2782.000000,3.000000,72.000000,,,,0.000000,4.000000,4.000000,4.000000,2.000000,4.000000,4.000000,4.000000,4.000000,4.000000,4.000000,4.000000,4.000000,4.000000,4.000000,83.333336,,,,,,,,,,,,,,,,,,,,,,,,,,,,,,,,,,,,,,,,,,,,,,,,,,,,,,,,,,,,,,,,,,,,,,,,,,,,,,,,,,,,,,
1676666967.840757,1676666967.841769,84.000000,0.000000,4311.538574,4267.436035,4306.666504,4309.230957,4296.922852,4305.256348,4302.307617,4299.487305,4294.871582,4280.000000,4453.717773,4473.077148,4370.000000,4388.974121,2358.000000,3.000000,72.000000,,,,0.000000,4.000000,4.000000,4.000000,2.000000,4.000000,4.000000,4.000000,4.000000,4.000000,4.000000,4.000000,4.000000,4.000000,4.000000,83.333336,,,,,,,,,,,,,,,,,,,,,,,,,,,,,,,,,,,,,,,,,,,,,,,,,,,,,,,,,,,,,,,,,,,,,,,,,,,,,,,,,,,,,,
1676666967.848566,1676666967.849678,85.000000,0.000000,4298.077148,4257.948730,4298.974121,4329.615234,4297.692383,4313.974121,4326.025879,4299.743652,4296.410156,4278.974121,4454.615234,4467.563965,4370.384766,4382.307617,3099.000000,3.000000,72.000000,,,,0.000000,4.000000,4.000000,4.000000,2.000000,4.000000,4.000000,4.000000,4.000000,4.000000,4.000000,4.000000,4.000000,4.000000,4.000000,83.333336,,,,,,,,,,,,,,,,,,,,,,,,,,,,,,,,,,,,,,,,,,,,,,,,,,,,,,,,,,,,,,,,,,,,,,,,,,,,,,,,,,,,,,
1676666967.856374,1676666967.857486,86.000000,0.000000,4289.102539,4244.743652,4289.358887,4313.333496,4294.871582,4319.102539,4323.974121,4296.794922,4293.846191,4271.538574,4447.179688,4455.897461,4363.461426,4381.025879,2359.000000,3.000000,72.000000,,,,0.000000,4.000000,4.000000,4.000000,2.000000,4.000000,4.000000,4.000000,4.000000,4.000000,4.000000,4.000000,4.000000,4.000000,4.000000,83.333336,,,,,,,,,,,,,,,,,,,,,,,,,,,,,,,,,,,,,,,,,,,,,,,,,,,,,,,,,,,,,,,,,,,,,,,,,,,,,,,,,,,,,,
