title:Psychopy_Cris_1_2023-02-10T121724.191937, start timestamp:1676060244.116428, stop timestamp:1676060305.123329, headset type:EPOCX, headset serial:E2020A42, headset firmware:720, channels:125, sampling rate:eeg_128;pow_8, samples:7814      , version:2.1, 
Timestamp,OriginalTimestamp,EEG.Counter,EEG.Interpolated,EEG.AF3,EEG.F7,EEG.F3,EEG.FC5,EEG.T7,EEG.P7,EEG.O1,EEG.O2,EEG.P8,EEG.T8,EEG.FC6,EEG.F4,EEG.F8,EEG.AF4,EEG.RawCq,EEG.Battery,EEG.BatteryPercent,MarkerIndex,MarkerType,MarkerValueInt,EEG.MarkerHardware,CQ.AF3,CQ.F7,CQ.F3,CQ.FC5,CQ.T7,CQ.P7,CQ.O1,CQ.O2,CQ.P8,CQ.T8,CQ.FC6,CQ.F4,CQ.F8,CQ.AF4,CQ.Overall,EQ.SampleRateQuality,EQ.OVERALL,EQ.AF3,EQ.F7,EQ.F3,EQ.FC5,EQ.T7,EQ.P7,EQ.O1,EQ.O2,EQ.P8,EQ.T8,EQ.FC6,EQ.F4,EQ.F8,EQ.AF4,POW.AF3.Theta,POW.AF3.Alpha,POW.AF3.BetaL,POW.AF3.BetaH,POW.AF3.Gamma,POW.F7.Theta,POW.F7.Alpha,POW.F7.BetaL,POW.F7.BetaH,POW.F7.Gamma,POW.F3.Theta,POW.F3.Alpha,POW.F3.BetaL,POW.F3.BetaH,POW.F3.Gamma,POW.FC5.Theta,POW.FC5.Alpha,POW.FC5.BetaL,POW.FC5.BetaH,POW.FC5.Gamma,POW.T7.Theta,POW.T7.Alpha,POW.T7.BetaL,POW.T7.BetaH,POW.T7.Gamma,POW.P7.Theta,POW.P7.Alpha,POW.P7.BetaL,POW.P7.BetaH,POW.P7.Gamma,POW.O1.Theta,POW.O1.Alpha,POW.O1.BetaL,POW.O1.BetaH,POW.O1.Gamma,POW.O2.Theta,POW.O2.Alpha,POW.O2.BetaL,POW.O2.BetaH,POW.O2.Gamma,POW.P8.Theta,POW.P8.Alpha,POW.P8.BetaL,POW.P8.BetaH,POW.P8.Gamma,POW.T8.Theta,POW.T8.Alpha,POW.T8.BetaL,POW.T8.BetaH,POW.T8.Gamma,POW.FC6.Theta,POW.FC6.Alpha,POW.FC6.BetaL,POW.FC6.BetaH,POW.FC6.Gamma,POW.F4.Theta,POW.F4.Alpha,POW.F4.BetaL,POW.F4.BetaH,POW.F4.Gamma,POW.F8.Theta,POW.F8.Alpha,POW.F8.BetaL,POW.F8.BetaH,POW.F8.Gamma,POW.AF4.Theta,POW.AF4.Alpha,POW.AF4.BetaL,POW.AF4.BetaH,POW.AF4.Gamma
1676060244.116428,1676060244.117199,106.000000,0.000000,4257.563965,4310.512695,4290.256348,4310.769043,4268.205078,4288.205078,4295.512695,4261.666504,4288.846191,4269.615234,4417.692383,4443.974121,4336.153809,4365.384766,2727.000000,4.000000,85.000000,,,,0.000000,4.000000,4.000000,4.000000,4.000000,4.000000,4.000000,4.000000,4.000000,4.000000,4.000000,4.000000,4.000000,4.000000,4.000000,100.000000,,,,,,,,,,,,,,,,,,,,,,,,,,,,,,,,,,,,,,,,,,,,,,,,,,,,,,,,,,,,,,,,,,,,,,,,,,,,,,,,,,,,,,
1676060244.124236,1676060244.124908,107.000000,0.000000,4278.717773,4333.333496,4308.077148,4326.282227,4284.358887,4298.717773,4315.000000,4280.384766,4304.615234,4276.794922,4444.615234,4467.820313,4365.512695,4388.461426,2910.000000,4.000000,85.000000,,,,0.000000,4.000000,4.000000,4.000000,4.000000,4.000000,4.000000,4.000000,4.000000,4.000000,4.000000,4.000000,4.000000,4.000000,4.000000,100.000000,,,,,,,,,,,,,,,,,,,,,,,,,,,,,,,,,,,,,,,,,,,,,,,,,,,,,,,,,,,,,,,,,,,,,,,,,,,,,,,,,,,,,,
1676060244.132045,1676060244.132716,108.000000,0.000000,4287.948730,4339.615234,4314.487305,4328.333496,4283.846191,4301.025879,4315.384766,4282.051270,4314.615234,4291.922852,4447.820313,4472.692383,4373.461426,4395.000000,3136.000000,4.000000,85.000000,,,,0.000000,4.000000,4.000000,4.000000,4.000000,4.000000,4.000000,4.000000,4.000000,4.000000,4.000000,4.000000,4.000000,4.000000,4.000000,100.000000,,,,,,,,,,,,,,,,,,,,,,,,,,,,,,,,,,,,,,,,,,,,,,,,,,,,,,,,,,,,,,,,,,,,,,,,,,,,,,,,,,,,,,
1676060244.139853,1676060244.140425,109.000000,0.000000,4268.205078,4323.461426,4301.410156,4314.871582,4275.512695,4290.897461,4306.666504,4277.692383,4310.769043,4294.871582,4426.794922,4458.717773,4351.666504,4379.358887,3244.000000,4.000000,85.000000,,,,0.000000,4.000000,4.000000,4.000000,4.000000,4.000000,4.000000,4.000000,4.000000,4.000000,4.000000,4.000000,4.000000,4.000000,4.000000,100.000000,,,,,,,,,,,,,,,,,,,,,,,,,,,,,,,,,,,,,,,,,,,,,,,,,,,,,,,,,,,,,,,,,,,,,,,,,,,,,,,,,,,,,,
1676060244.147662,1676060244.148233,110.000000,0.000000,4258.589844,4318.589844,4294.615234,4309.230957,4273.589844,4279.230957,4304.358887,4276.666504,4302.051270,4285.897461,4423.589844,4459.743652,4346.538574,4377.692383,2727.000000,4.000000,85.000000,,,,0.000000,4.000000,4.000000,4.000000,4.000000,4.000000,4.000000,4.000000,4.000000,4.000000,4.000000,4.000000,4.000000,4.000000,4.000000,100.000000,,,,,,,,,,,,,,,,,1.713094,1.042788,0.915427,0.820196,0.889296,5.659424,3.085951,0.715756,1.144511,0.904838,1.189486,1.217230,1.472315,0.805441,0.834980,1.570974,2.511744,0.508269,0.912605,0.869274,2.816264,0.872827,0.495981,0.480846,0.591766,2.466794,0.881278,1.203471,0.363107,0.393205,1.978682,0.565859,0.405342,0.626530,0.594416,45.621773,0.964469,0.802572,0.592014,0.719383,0.595147,0.957487,0.614392,0.595417,0.883069,0.975239,2.433244,1.458897,0.818735,0.956102,16.818302,1.742465,2.832747,1.748223,1.791200,5.785781,1.797599,2.261513,1.180480,1.098031,5.641500,2.496684,1.696177,2.290375,1.890530,3.495079,2.107450,2.117640,1.668592,1.761910
1676060244.155470,1676060244.155942,111.000000,0.000000,4266.538574,4327.820313,4297.563965,4316.025879,4272.948730,4280.128418,4298.589844,4266.922852,4293.846191,4279.230957,4422.051270,4456.153809,4348.077148,4376.794922,2910.000000,4.000000,85.000000,,,,0.000000,4.000000,4.000000,4.000000,4.000000,4.000000,4.000000,4.000000,4.000000,4.000000,4.000000,4.000000,4.000000,4.000000,4.000000,100.000000,,,,,,,,,,,,,,,,,,,,,,,,,,,,,,,,,,,,,,,,,,,,,,,,,,,,,,,,,,,,,,,,,,,,,,,,,,,,,,,,,,,,,,
1676060244.163278,1676060244.163750,112.000000,0.000000,4271.538574,4336.153809,4301.666504,4321.025879,4274.102539,4292.436035,4301.153809,4263.205078,4296.025879,4281.410156,4402.820313,4443.333496,4333.717773,4361.153809,3136.000000,4.000000,85.000000,,,,0.000000,4.000000,4.000000,4.000000,4.000000,4.000000,4.000000,4.000000,4.000000,4.000000,4.000000,4.000000,4.000000,4.000000,4.000000,100.000000,,,,,,,,,,,,,,,,,,,,,,,,,,,,,,,,,,,,,,,,,,,,,,,,,,,,,,,,,,,,,,,,,,,,,,,,,,,,,,,,,,,,,,
1676060244.171087,1676060244.171459,113.000000,0.000000,4255.512695,4325.641113,4291.538574,4309.230957,4265.128418,4294.358887,4302.563965,4267.179688,4296.666504,4272.948730,4388.205078,4437.051270,4316.922852,4347.436035,3244.000000,4.000000,85.000000,,,,0.000000,4.000000,4.000000,4.000000,4.000000,4.000000,4.000000,4.000000,4.000000,4.000000,4.000000,4.000000,4.000000,4.000000,4.000000,100.000000,,,,,,,,,,,,,,,,,,,,,,,,,,,,,,,,,,,,,,,,,,,,,,,,,,,,,,,,,,,,,,,,,,,,,,,,,,,,,,,,,,,,,,
1676060244.178895,1676060244.179267,114.000000,0.000000,4248.333496,4316.410156,4285.641113,4303.717773,4260.000000,4291.282227,4296.666504,4264.743652,4294.230957,4271.410156,4400.000000,4438.461426,4328.205078,4355.256348,2727.000000,4.000000,85.000000,,,,0.000000,4.000000,4.000000,4.000000,4.000000,4.000000,4.000000,4.000000,4.000000,4.000000,4.000000,4.000000,4.000000,4.000000,4.000000,100.000000,,,,,,,,,,,,,,,,,,,,,,,,,,,,,,,,,,,,,,,,,,,,,,,,,,,,,,,,,,,,,,,,,,,,,,,,,,,,,,,,,,,,,,
1676060244.186703,1676060244.186976,115.000000,0.000000,4270.512695,4330.384766,4303.077148,4315.897461,4276.410156,4297.179688,4305.512695,4270.641113,4305.384766,4287.820313,4424.487305,4452.051270,4360.897461,4378.846191,2910.000000,4.000000,85.000000,,,,0.000000,4.000000,4.000000,4.000000,4.000000,4.000000,4.000000,4.000000,4.000000,4.000000,4.000000,4.000000,4.000000,4.000000,4.000000,100.000000,,,,,,,,,,,,,,,,,,,,,,,,,,,,,,,,,,,,,,,,,,,,,,,,,,,,,,,,,,,,,,,,,,,,,,,,,,,,,,,,,,,,,,
1676060244.194512,1676060244.194884,116.000000,0.000000,4279.487305,4332.820313,4308.974121,4318.461426,4279.358887,4292.436035,4311.794922,4275.256348,4309.871582,4279.871582,4422.051270,4460.897461,4358.461426,4384.743652,3136.000000,4.000000,85.000000,,,,0.000000,4.000000,4.000000,4.000000,4.000000,4.000000,4.000000,4.000000,4.000000,4.000000,4.000000,4.000000,4.000000,4.000000,4.000000,100.000000,,,,,,,,,,,,,,,,,,,,,,,,,,,,,,,,,,,,,,,,,,,,,,,,,,,,,,,,,,,,,,,,,,,,,,,,,,,,,,,,,,,,,,
1676060244.202320,1676060244.202693,117.000000,0.000000,4266.410156,4324.615234,4292.051270,4308.717773,4263.974121,4278.846191,4298.205078,4264.358887,4291.282227,4262.436035,4396.410156,4446.282227,4328.461426,4369.102539,3244.000000,4.000000,85.000000,,,,0.000000,4.000000,4.000000,4.000000,4.000000,4.000000,4.000000,4.000000,4.000000,4.000000,4.000000,4.000000,4.000000,4.000000,4.000000,100.000000,,,,,,,,,,,,,,,,,,,,,,,,,,,,,,,,,,,,,,,,,,,,,,,,,,,,,,,,,,,,,,,,,,,,,,,,,,,,,,,,,,,,,,
1676060244.210129,1676060244.210601,118.000000,0.000000,4261.410156,4329.615234,4287.820313,4307.436035,4264.871582,4280.897461,4296.025879,4267.436035,4288.717773,4273.077148,4389.102539,4437.692383,4322.051270,4361.538574,2727.000000,4.000000,85.000000,,,,0.000000,4.000000,4.000000,4.000000,4.000000,4.000000,4.000000,4.000000,4.000000,4.000000,4.000000,4.000000,4.000000,4.000000,4.000000,100.000000,,,,,,,,,,,,,,,,,,,,,,,,,,,,,,,,,,,,,,,,,,,,,,,,,,,,,,,,,,,,,,,,,,,,,,,,,,,,,,,,,,,,,,
1676060244.217937,1676060244.218409,119.000000,0.000000,4264.102539,4330.769043,4297.051270,4310.897461,4271.794922,4292.948730,4307.307617,4281.666504,4304.615234,4286.538574,4402.307617,4451.794922,4329.358887,4370.641113,2910.000000,4.000000,85.000000,,,,0.000000,4.000000,4.000000,4.000000,4.000000,4.000000,4.000000,4.000000,4.000000,4.000000,4.000000,4.000000,4.000000,4.000000,4.000000,100.000000,,,,,,,,,,,,,,,,,,,,,,,,,,,,,,,,,,,,,,,,,,,,,,,,,,,,,,,,,,,,,,,,,,,,,,,,,,,,,,,,,,,,,,
1676060244.225745,1676060244.226218,120.000000,0.000000,4270.000000,4328.333496,4302.051270,4313.205078,4266.410156,4293.077148,4305.641113,4278.974121,4303.333496,4281.282227,4412.307617,4463.333496,4338.205078,4382.692383,3136.000000,4.000000,85.000000,,,,0.000000,4.000000,4.000000,4.000000,4.000000,4.000000,4.000000,4.000000,4.000000,4.000000,4.000000,4.000000,4.000000,4.000000,4.000000,100.000000,,,,,,,,,,,,,,,,,,,,,,,,,,,,,,,,,,,,,,,,,,,,,,,,,,,,,,,,,,,,,,,,,,,,,,,,,,,,,,,,,,,,,,
1676060244.233554,1676060244.233926,121.000000,0.000000,4281.282227,4335.256348,4303.333496,4319.102539,4263.077148,4282.179688,4297.820313,4270.897461,4293.589844,4268.461426,4408.333496,4455.000000,4343.333496,4384.102539,3244.000000,4.000000,85.000000,,,,0.000000,4.000000,4.000000,4.000000,4.000000,4.000000,4.000000,4.000000,4.000000,4.000000,4.000000,4.000000,4.000000,4.000000,4.000000,100.000000,,,,,,,,,,,,,,,,,,,,,,,,,,,,,,,,,,,,,,,,,,,,,,,,,,,,,,,,,,,,,,,,,,,,,,,,,,,,,,,,,,,,,,
1676060244.241362,1676060244.241735,122.000000,0.000000,4281.153809,4339.102539,4300.769043,4323.461426,4266.666504,4283.333496,4299.230957,4269.487305,4295.641113,4264.871582,4398.077148,4444.358887,4333.846191,4379.487305,2727.000000,4.000000,85.000000,,,,0.000000,4.000000,4.000000,4.000000,4.000000,4.000000,4.000000,4.000000,4.000000,4.000000,4.000000,4.000000,4.000000,4.000000,4.000000,100.000000,,,,,,,,,,,,,,,,,,,,,,,,,,,,,,,,,,,,,,,,,,,,,,,,,,,,,,,,,,,,,,,,,,,,,,,,,,,,,,,,,,,,,,
1676060244.249170,1676060244.249443,123.000000,0.000000,4276.922852,4343.589844,4300.641113,4324.871582,4266.025879,4294.615234,4304.871582,4267.179688,4301.025879,4274.487305,4395.769043,4449.230957,4325.641113,4380.512695,2910.000000,4.000000,85.000000,,,,0.000000,4.000000,4.000000,4.000000,4.000000,4.000000,4.000000,4.000000,4.000000,4.000000,4.000000,4.000000,4.000000,4.000000,4.000000,100.000000,,,,,,,,,,,,,,,,,,,,,,,,,,,,,,,,,,,,,,,,,,,,,,,,,,,,,,,,,,,,,,,,,,,,,,,,,,,,,,,,,,,,,,
1676060244.256979,1676060244.257352,124.000000,0.000000,4283.974121,4352.948730,4306.025879,4326.410156,4263.077148,4292.692383,4304.102539,4266.666504,4301.153809,4275.384766,4399.487305,4456.794922,4334.615234,4384.230957,3136.000000,4.000000,85.000000,,,,0.000000,4.000000,4.000000,4.000000,4.000000,4.000000,4.000000,4.000000,4.000000,4.000000,4.000000,4.000000,4.000000,4.000000,4.000000,100.000000,,,,,,,,,,,,,,,,,,,,,,,,,,,,,,,,,,,,,,,,,,,,,,,,,,,,,,,,,,,,,,,,,,,,,,,,,,,,,,,,,,,,,,
1676060244.264787,1676060244.265160,125.000000,0.000000,4283.461426,4348.077148,4300.000000,4324.358887,4261.153809,4281.410156,4299.615234,4273.717773,4298.461426,4262.948730,4397.948730,4454.615234,4340.000000,4382.179688,3244.000000,4.000000,85.000000,,,,0.000000,4.000000,4.000000,4.000000,4.000000,4.000000,4.000000,4.000000,4.000000,4.000000,4.000000,4.000000,4.000000,4.000000,4.000000,100.000000,,,,,,,,,,,,,,,,,,,,,,,,,,,,,,,,,,,,,,,,,,,,,,,,,,,,,,,,,,,,,,,,,,,,,,,,,,,,,,,,,,,,,,
1676060244.272596,1676060244.273068,126.000000,0.000000,4278.205078,4339.871582,4294.230957,4320.128418,4263.846191,4282.307617,4301.025879,4279.487305,4297.820313,4271.025879,4397.179688,4452.948730,4332.436035,4382.307617,2727.000000,4.000000,85.000000,,,,0.000000,4.000000,4.000000,4.000000,4.000000,4.000000,4.000000,4.000000,4.000000,4.000000,4.000000,4.000000,4.000000,4.000000,4.000000,100.000000,,,,,,,,,,,,,,,,,1.855188,1.026613,0.952612,0.845570,0.853530,5.760478,3.248045,0.900206,1.222001,0.889714,1.125561,1.210623,1.271819,0.887543,0.754929,1.880577,2.454858,0.703512,1.017974,0.806053,1.250726,0.963222,0.607874,0.508204,0.527503,3.187039,1.260222,1.749234,0.385030,0.391165,2.342443,0.725344,0.368023,0.567011,0.524998,37.859699,0.934130,0.627241,0.511707,0.635230,0.620782,0.900218,0.524068,0.467563,0.789146,0.987105,2.293132,1.362833,0.632949,0.881053,17.329639,1.393299,2.539173,1.283723,1.496838,5.467797,1.746897,1.856451,0.887384,0.960080,5.709801,2.204986,1.513542,1.719682,1.615298,3.499860,1.865391,1.965546,1.264279,1.534339
1676060244.280404,1676060244.280877,127.000000,0.000000,4278.846191,4340.641113,4297.692383,4312.820313,4265.128418,4285.128418,4300.769043,4272.563965,4297.307617,4285.256348,4397.563965,4451.153809,4327.179688,4381.410156,85.000000,4.000000,85.000000,,,,0.000000,4.000000,4.000000,4.000000,4.000000,4.000000,4.000000,4.000000,4.000000,4.000000,4.000000,4.000000,4.000000,4.000000,4.000000,100.000000,,,,,,,,,,,,,,,,,,,,,,,,,,,,,,,,,,,,,,,,,,,,,,,,,,,,,,,,,,,,,,,,,,,,,,,,,,,,,,,,,,,,,,
1676060244.288212,1676060244.288785,0.000000,0.000000,4276.922852,4344.615234,4294.102539,4310.512695,4261.410156,4277.692383,4293.077148,4262.179688,4293.589844,4276.794922,4389.615234,4439.102539,4323.974121,4373.846191,2533.000000,4.000000,85.000000,,,,0.000000,4.000000,4.000000,4.000000,4.000000,4.000000,4.000000,4.000000,4.000000,4.000000,4.000000,4.000000,4.000000,4.000000,4.000000,100.000000,,,,,,,,,,,,,,,,,,,,,,,,,,,,,,,,,,,,,,,,,,,,,,,,,,,,,,,,,,,,,,,,,,,,,,,,,,,,,,,,,,,,,,
1676060244.296021,1676060244.296594,1.000000,0.000000,4281.153809,4351.794922,4293.589844,4324.230957,4267.436035,4281.410156,4293.846191,4263.461426,4293.589844,4275.897461,4390.512695,4435.641113,4325.000000,4373.333496,2474.000000,4.000000,85.000000,,,,0.000000,4.000000,4.000000,4.000000,4.000000,4.000000,4.000000,4.000000,4.000000,4.000000,4.000000,4.000000,4.000000,4.000000,4.000000,100.000000,,,,,,,,,,,,,,,,,,,,,,,,,,,,,,,,,,,,,,,,,,,,,,,,,,,,,,,,,,,,,,,,,,,,,,,,,,,,,,,,,,,,,,
1676060244.303829,1676060244.304502,2.000000,0.000000,4282.692383,4349.230957,4296.153809,4326.666504,4273.974121,4288.077148,4297.948730,4265.897461,4294.230957,4276.794922,4403.974121,4441.922852,4325.897461,4374.102539,2401.000000,4.000000,85.000000,,,,0.000000,4.000000,4.000000,4.000000,4.000000,4.000000,4.000000,4.000000,4.000000,4.000000,4.000000,4.000000,4.000000,4.000000,4.000000,100.000000,,,,,,,,,,,,,,,,,,,,,,,,,,,,,,,,,,,,,,,,,,,,,,,,,,,,,,,,,,,,,,,,,,,,,,,,,,,,,,,,,,,,,,
1676060244.311638,1676060244.312410,3.000000,0.000000,4273.717773,4342.051270,4295.128418,4313.461426,4270.384766,4283.333496,4294.230957,4264.102539,4292.179688,4269.615234,4423.077148,4440.641113,4322.436035,4370.256348,2463.000000,4.000000,85.000000,,,,0.000000,4.000000,4.000000,4.000000,4.000000,4.000000,4.000000,4.000000,4.000000,4.000000,4.000000,4.000000,4.000000,4.000000,4.000000,100.000000,,,,,,,,,,,,,,,,,,,,,,,,,,,,,,,,,,,,,,,,,,,,,,,,,,,,,,,,,,,,,,,,,,,,,,,,,,,,,,,,,,,,,,
1676060244.319446,1676060244.320219,4.000000,0.000000,4285.897461,4353.205078,4307.051270,4320.256348,4272.563965,4286.025879,4299.743652,4272.948730,4303.589844,4284.871582,4452.820313,4452.948730,4338.461426,4384.102539,2438.000000,4.000000,85.000000,,,,0.000000,4.000000,4.000000,4.000000,4.000000,4.000000,4.000000,4.000000,4.000000,4.000000,4.000000,4.000000,4.000000,4.000000,4.000000,100.000000,,,,,,,,,,,,,,,,,,,,,,,,,,,,,,,,,,,,,,,,,,,,,,,,,,,,,,,,,,,,,,,,,,,,,,,,,,,,,,,,,,,,,,
1676060244.327254,1676060244.328127,5.000000,0.000000,4315.897461,4370.128418,4323.461426,4340.384766,4283.846191,4292.692383,4308.974121,4285.000000,4316.794922,4294.871582,4482.307617,4474.615234,4361.922852,4406.153809,2373.000000,4.000000,85.000000,,,,0.000000,4.000000,4.000000,4.000000,4.000000,4.000000,4.000000,4.000000,4.000000,4.000000,4.000000,4.000000,4.000000,4.000000,4.000000,100.000000,,,,,,,,,,,,,,,,,,,,,,,,,,,,,,,,,,,,,,,,,,,,,,,,,,,,,,,,,,,,,,,,,,,,,,,,,,,,,,,,,,,,,,
1676060244.335063,1676060244.335936,6.000000,0.000000,4309.102539,4357.692383,4318.974121,4333.846191,4281.666504,4288.589844,4305.897461,4281.025879,4306.025879,4269.871582,4485.641113,4470.897461,4346.538574,4397.563965,2221.000000,4.000000,85.000000,,,,0.000000,4.000000,4.000000,4.000000,4.000000,4.000000,4.000000,4.000000,4.000000,4.000000,4.000000,4.000000,4.000000,4.000000,4.000000,100.000000,,,,,,,,,,,,,,,,,,,,,,,,,,,,,,,,,,,,,,,,,,,,,,,,,,,,,,,,,,,,,,,,,,,,,,,,,,,,,,,,,,,,,,
1676060244.342871,1676060244.343744,7.000000,0.000000,4271.922852,4332.307617,4300.000000,4310.769043,4266.666504,4274.871582,4293.205078,4267.179688,4284.230957,4254.487305,4464.102539,4443.974121,4312.179688,4370.512695,2234.000000,4.000000,85.000000,,,,0.000000,4.000000,4.000000,4.000000,4.000000,4.000000,4.000000,4.000000,4.000000,4.000000,4.000000,4.000000,4.000000,4.000000,4.000000,100.000000,,,,,,,,,,,,,,,,,,,,,,,,,,,,,,,,,,,,,,,,,,,,,,,,,,,,,,,,,,,,,,,,,,,,,,,,,,,,,,,,,,,,,,
1676060244.350680,1676060244.351453,8.000000,0.000000,4267.436035,4331.153809,4291.153809,4306.794922,4261.922852,4265.384766,4285.128418,4256.153809,4278.205078,4262.563965,4445.512695,4427.820313,4313.717773,4364.358887,2274.000000,4.000000,85.000000,,,,0.000000,4.000000,4.000000,4.000000,4.000000,4.000000,4.000000,4.000000,4.000000,4.000000,4.000000,4.000000,4.000000,4.000000,4.000000,100.000000,,,,,,,,,,,,,,,,,,,,,,,,,,,,,,,,,,,,,,,,,,,,,,,,,,,,,,,,,,,,,,,,,,,,,,,,,,,,,,,,,,,,,,
1676060244.358488,1676060244.359261,9.000000,0.000000,4279.743652,4336.538574,4293.589844,4311.922852,4262.948730,4270.769043,4290.384766,4258.846191,4288.333496,4266.025879,4441.410156,4431.410156,4327.051270,4368.717773,2244.000000,4.000000,85.000000,,,,0.000000,4.000000,4.000000,4.000000,4.000000,4.000000,4.000000,4.000000,4.000000,4.000000,4.000000,4.000000,4.000000,4.000000,4.000000,100.000000,,,,,,,,,,,,,,,,,,,,,,,,,,,,,,,,,,,,,,,,,,,,,,,,,,,,,,,,,,,,,,,,,,,,,,,,,,,,,,,,,,,,,,
1676060244.366296,1676060244.366970,10.000000,0.000000,4271.153809,4335.000000,4292.179688,4307.436035,4265.512695,4279.871582,4295.128418,4266.410156,4293.717773,4267.948730,4441.153809,4436.922852,4321.666504,4365.512695,2728.000000,4.000000,85.000000,,,,0.000000,4.000000,4.000000,4.000000,4.000000,4.000000,4.000000,4.000000,4.000000,4.000000,4.000000,4.000000,4.000000,4.000000,4.000000,100.000000,,,,,,,,,,,,,,,,,,,,,,,,,,,,,,,,,,,,,,,,,,,,,,,,,,,,,,,,,,,,,,,,,,,,,,,,,,,,,,,,,,,,,,
1676060244.374105,1676060244.374778,11.000000,0.000000,4270.641113,4345.000000,4294.871582,4310.769043,4277.948730,4277.820313,4295.000000,4266.666504,4293.717773,4273.717773,4444.102539,4443.077148,4332.051270,4372.948730,2922.000000,4.000000,85.000000,,,,0.000000,4.000000,4.000000,4.000000,4.000000,4.000000,4.000000,4.000000,4.000000,4.000000,4.000000,4.000000,4.000000,4.000000,4.000000,100.000000,,,,,,,,,,,,,,,,,,,,,,,,,,,,,,,,,,,,,,,,,,,,,,,,,,,,,,,,,,,,,,,,,,,,,,,,,,,,,,,,,,,,,,
1676060244.381913,1676060244.382487,12.000000,0.000000,4285.384766,4353.333496,4302.820313,4322.051270,4286.794922,4275.000000,4293.333496,4265.512695,4298.589844,4281.025879,4447.436035,4446.410156,4345.769043,4381.666504,3141.000000,4.000000,85.000000,,,,0.000000,4.000000,4.000000,4.000000,4.000000,4.000000,4.000000,4.000000,4.000000,4.000000,4.000000,4.000000,4.000000,4.000000,4.000000,100.000000,,,,,,,,,,,,,,,,,,,,,,,,,,,,,,,,,,,,,,,,,,,,,,,,,,,,,,,,,,,,,,,,,,,,,,,,,,,,,,,,,,,,,,
1676060244.389721,1676060244.390295,13.000000,0.000000,4284.871582,4344.487305,4300.256348,4318.717773,4282.436035,4280.384766,4286.922852,4263.077148,4298.974121,4282.307617,4436.410156,4441.922852,4332.436035,4369.358887,3254.000000,4.000000,85.000000,,,,0.000000,4.000000,4.000000,4.000000,4.000000,4.000000,4.000000,4.000000,4.000000,4.000000,4.000000,4.000000,4.000000,4.000000,4.000000,100.000000,,,,,,,,,,,,,,,,,,,,,,,,,,,,,,,,,,,,,,,,,,,,,,,,,,,,,,,,,,,,,,,,,,,,,,,,,,,,,,,,,,,,,,
1676060244.397530,1676060244.398004,14.000000,0.000000,4274.230957,4338.717773,4288.461426,4310.128418,4282.948730,4280.384766,4287.563965,4262.307617,4290.512695,4267.307617,4422.820313,4437.948730,4323.333496,4364.102539,2728.000000,4.000000,85.000000,,,,0.000000,4.000000,4.000000,4.000000,4.000000,4.000000,4.000000,4.000000,4.000000,4.000000,4.000000,4.000000,4.000000,4.000000,4.000000,100.000000,1.000000,41.666668,4.000000,4.000000,4.000000,4.000000,1.000000,4.000000,4.000000,1.000000,4.000000,4.000000,3.000000,4.000000,3.000000,3.000000,2.034757,1.031305,1.113814,0.874175,0.794613,5.958127,3.135562,1.096348,1.324714,0.846599,1.123711,1.232692,1.334505,0.972730,0.657789,2.336721,2.162606,0.943733,1.137412,0.714777,0.617266,0.974439,0.760723,0.545522,0.454210,3.782602,1.592718,2.209935,0.423497,0.383918,2.532699,0.861496,0.409031,0.495750,0.456347,26.766668,0.927931,0.533935,0.472464,0.547267,0.637731,0.843808,0.520153,0.387740,0.682309,1.000023,2.010075,1.340861,0.504360,0.834769,16.634933,1.272213,2.487633,0.949155,1.249837,4.861058,1.839036,1.863035,0.698269,0.815310,5.743798,2.013663,1.499327,1.244360,1.386719,3.346305,1.732824,2.056469,0.965096,1.335031
1676060244.405338,1676060244.405912,15.000000,0.000000,4276.282227,4343.717773,4293.077148,4318.461426,4294.102539,4279.615234,4301.922852,4272.051270,4295.256348,4265.769043,4433.717773,4444.230957,4334.743652,4381.153809,2922.000000,4.000000,85.000000,,,,0.000000,4.000000,4.000000,4.000000,4.000000,4.000000,4.000000,4.000000,4.000000,4.000000,4.000000,4.000000,4.000000,4.000000,4.000000,100.000000,,,,,,,,,,,,,,,,,,,,,,,,,,,,,,,,,,,,,,,,,,,,,,,,,,,,,,,,,,,,,,,,,,,,,,,,,,,,,,,,,,,,,,
1676060244.413147,1676060244.413720,16.000000,0.000000,4276.410156,4344.230957,4300.000000,4320.384766,4292.692383,4282.563965,4306.922852,4282.307617,4307.436035,4283.333496,4444.871582,4449.102539,4339.230957,4380.256348,0.000000,4.000000,85.000000,,,,0.000000,4.000000,4.000000,4.000000,4.000000,4.000000,4.000000,4.000000,4.000000,4.000000,4.000000,4.000000,4.000000,4.000000,4.000000,100.000000,,,,,,,,,,,,,,,,,,,,,,,,,,,,,,,,,,,,,,,,,,,,,,,,,,,,,,,,,,,,,,,,,,,,,,,,,,,,,,,,,,,,,,
1676060244.420955,1676060244.421629,17.000000,0.000000,4265.897461,4338.589844,4288.333496,4307.563965,4278.846191,4279.102539,4293.589844,4279.102539,4306.410156,4289.615234,4431.410156,4441.794922,4332.692383,4361.666504,0.000000,4.000000,85.000000,,,,0.000000,4.000000,4.000000,4.000000,4.000000,4.000000,4.000000,4.000000,4.000000,4.000000,4.000000,4.000000,4.000000,4.000000,4.000000,100.000000,,,,,,,,,,,,,,,,,,,,,,,,,,,,,,,,,,,,,,,,,,,,,,,,,,,,,,,,,,,,,,,,,,,,,,,,,,,,,,,,,,,,,,
1676060244.428763,1676060244.429437,18.000000,0.000000,4262.563965,4337.563965,4285.384766,4306.153809,4276.282227,4276.153809,4290.769043,4276.538574,4303.974121,4287.948730,4423.589844,4441.153809,4332.692383,4366.538574,0.000000,4.000000,85.000000,,,,0.000000,4.000000,4.000000,4.000000,4.000000,4.000000,4.000000,4.000000,4.000000,4.000000,4.000000,4.000000,4.000000,4.000000,4.000000,100.000000,,,,,,,,,,,,,,,,,,,,,,,,,,,,,,,,,,,,,,,,,,,,,,,,,,,,,,,,,,,,,,,,,,,,,,,,,,,,,,,,,,,,,,
1676060244.436572,1676060244.437346,19.000000,0.000000,4272.692383,4345.512695,4297.179688,4314.230957,4285.256348,4276.538574,4296.666504,4279.743652,4307.436035,4289.487305,4435.128418,4447.820313,4338.974121,4383.717773,0.000000,4.000000,85.000000,,,,0.000000,4.000000,4.000000,4.000000,4.000000,4.000000,4.000000,4.000000,4.000000,4.000000,4.000000,4.000000,4.000000,4.000000,4.000000,100.000000,,,,,,,,,,,,,,,,,,,,,,,,,,,,,,,,,,,,,,,,,,,,,,,,,,,,,,,,,,,,,,,,,,,,,,,,,,,,,,,,,,,,,,
1676060244.444380,1676060244.445154,20.000000,0.000000,4280.256348,4347.692383,4298.974121,4312.051270,4285.512695,4277.563965,4294.358887,4273.589844,4306.794922,4282.307617,4437.948730,4445.769043,4341.922852,4382.436035,0.000000,4.000000,85.000000,,,,0.000000,4.000000,4.000000,4.000000,4.000000,4.000000,4.000000,4.000000,4.000000,4.000000,4.000000,4.000000,4.000000,4.000000,4.000000,100.000000,,,,,,,,,,,,,,,,,,,,,,,,,,,,,,,,,,,,,,,,,,,,,,,,,,,,,,,,,,,,,,,,,,,,,,,,,,,,,,,,,,,,,,
1676060244.452188,1676060244.453062,21.000000,0.000000,4278.717773,4340.384766,4293.077148,4308.461426,4283.589844,4280.000000,4292.692383,4272.179688,4304.743652,4278.589844,4429.230957,4442.948730,4341.410156,4373.333496,0.000000,4.000000,85.000000,,,,0.000000,4.000000,4.000000,4.000000,4.000000,4.000000,4.000000,4.000000,4.000000,4.000000,4.000000,4.000000,4.000000,4.000000,4.000000,100.000000,,,,,,,,,,,,,,,,,,,,,,,,,,,,,,,,,,,,,,,,,,,,,,,,,,,,,,,,,,,,,,,,,,,,,,,,,,,,,,,,,,,,,,
1676060244.459997,1676060244.460871,22.000000,0.000000,4276.153809,4341.538574,4294.615234,4313.974121,4289.615234,4281.153809,4298.461426,4280.128418,4302.436035,4282.179688,4427.307617,4445.128418,4340.384766,4373.461426,0.000000,4.000000,85.000000,,,,0.000000,4.000000,4.000000,4.000000,4.000000,4.000000,4.000000,4.000000,4.000000,4.000000,4.000000,4.000000,4.000000,4.000000,4.000000,100.000000,,,,,,,,,,,,,,,,,,,,,,,,,,,,,,,,,,,,,,,,,,,,,,,,,,,,,,,,,,,,,,,,,,,,,,,,,,,,,,,,,,,,,,
1676060244.467805,1676060244.468779,23.000000,0.000000,4273.461426,4343.717773,4298.717773,4311.666504,4289.358887,4281.282227,4300.512695,4276.153809,4299.871582,4276.538574,4433.077148,4445.641113,4338.461426,4376.410156,0.000000,4.000000,85.000000,,,,0.000000,4.000000,4.000000,4.000000,4.000000,4.000000,4.000000,4.000000,4.000000,4.000000,4.000000,4.000000,4.000000,4.000000,4.000000,100.000000,,,,,,,,,,,,,,,,,,,,,,,,,,,,,,,,,,,,,,,,,,,,,,,,,,,,,,,,,,,,,,,,,,,,,,,,,,,,,,,,,,,,,,
1676060244.475614,1676060244.476588,24.000000,0.000000,4262.692383,4331.794922,4293.461426,4298.205078,4278.974121,4276.666504,4288.717773,4263.333496,4298.205078,4269.871582,4430.512695,4435.641113,4330.897461,4365.384766,0.000000,4.000000,85.000000,,,,0.000000,4.000000,4.000000,4.000000,4.000000,4.000000,4.000000,4.000000,4.000000,4.000000,4.000000,4.000000,4.000000,4.000000,4.000000,100.000000,,,,,,,,,,,,,,,,,,,,,,,,,,,,,,,,,,,,,,,,,,,,,,,,,,,,,,,,,,,,,,,,,,,,,,,,,,,,,,,,,,,,,,
1676060244.483422,1676060244.484496,25.000000,0.000000,4247.692383,4317.307617,4279.358887,4290.897461,4274.102539,4266.282227,4277.692383,4256.922852,4285.897461,4255.769043,4412.948730,4419.615234,4319.615234,4345.769043,0.000000,4.000000,85.000000,,,,0.000000,4.000000,4.000000,4.000000,4.000000,4.000000,4.000000,4.000000,4.000000,4.000000,4.000000,4.000000,4.000000,4.000000,4.000000,100.000000,,,,,,,,,,,,,,,,,,,,,,,,,,,,,,,,,,,,,,,,,,,,,,,,,,,,,,,,,,,,,,,,,,,,,,,,,,,,,,,,,,,,,,
1676060244.491230,1676060244.492304,26.000000,0.000000,4248.589844,4321.025879,4273.333496,4294.230957,4278.333496,4261.666504,4282.179688,4261.922852,4277.179688,4246.922852,4408.717773,4419.487305,4320.512695,4351.410156,0.000000,4.000000,85.000000,,,,0.000000,4.000000,4.000000,4.000000,4.000000,4.000000,4.000000,4.000000,4.000000,4.000000,4.000000,4.000000,4.000000,4.000000,4.000000,100.000000,,,,,,,,,,,,,,,,,,,,,,,,,,,,,,,,,,,,,,,,,,,,,,,,,,,,,,,,,,,,,,,,,,,,,,,,,,,,,,,,,,,,,,
1676060244.499039,1676060244.500013,27.000000,0.000000,4263.717773,4333.333496,4285.384766,4297.692383,4280.000000,4266.282227,4287.307617,4268.846191,4290.256348,4263.717773,4421.410156,4431.922852,4331.153809,4370.769043,0.000000,4.000000,85.000000,,,,0.000000,4.000000,4.000000,4.000000,4.000000,4.000000,4.000000,4.000000,4.000000,4.000000,4.000000,4.000000,4.000000,4.000000,4.000000,100.000000,,,,,,,,,,,,,,,,,,,,,,,,,,,,,,,,,,,,,,,,,,,,,,,,,,,,,,,,,,,,,,,,,,,,,,,,,,,,,,,,,,,,,,
1676060244.506847,1676060244.507821,28.000000,0.000000,4262.692383,4328.077148,4287.820313,4294.487305,4277.563965,4265.769043,4279.615234,4266.153809,4295.128418,4275.256348,4415.256348,4429.615234,4323.205078,4358.461426,0.000000,4.000000,85.000000,,,,0.000000,4.000000,4.000000,4.000000,4.000000,4.000000,4.000000,4.000000,4.000000,4.000000,4.000000,4.000000,4.000000,4.000000,4.000000,100.000000,,,,,,,,,,,,,,,,,,,,,,,,,,,,,,,,,,,,,,,,,,,,,,,,,,,,,,,,,,,,,,,,,,,,,,,,,,,,,,,,,,,,,,
1676060244.514655,1676060244.515530,29.000000,0.000000,4257.948730,4322.307617,4285.769043,4300.769043,4280.897461,4263.461426,4276.922852,4263.974121,4292.051270,4274.102539,4410.641113,4432.820313,4321.282227,4355.256348,0.000000,4.000000,85.000000,,,,0.000000,4.000000,4.000000,4.000000,4.000000,4.000000,4.000000,4.000000,4.000000,4.000000,4.000000,4.000000,4.000000,4.000000,4.000000,100.000000,,,,,,,,,,,,,,,,,,,,,,,,,,,,,,,,,,,,,,,,,,,,,,,,,,,,,,,,,,,,,,,,,,,,,,,,,,,,,,,,,,,,,,
1676060244.522464,1676060244.523338,30.000000,0.000000,4275.256348,4338.589844,4305.256348,4322.307617,4294.102539,4273.717773,4286.794922,4277.563965,4305.897461,4285.128418,4438.461426,4464.487305,4355.897461,4391.922852,0.000000,4.000000,85.000000,,,,0.000000,4.000000,4.000000,4.000000,4.000000,4.000000,4.000000,4.000000,4.000000,4.000000,4.000000,4.000000,4.000000,4.000000,4.000000,100.000000,,,,,,,,,,,,,,,,,2.103337,1.016938,1.305271,0.876418,0.724242,6.049512,2.785658,1.266948,1.395052,0.794802,1.134354,1.235563,1.505237,1.017688,0.563597,2.757654,1.734459,1.172374,1.216616,0.616408,0.378174,0.908176,0.913370,0.583114,0.388153,4.034549,1.765317,2.449433,0.473000,0.368010,2.485162,0.915608,0.492939,0.435785,0.401299,15.645103,0.897896,0.532526,0.472759,0.469815,0.642262,0.746998,0.582397,0.361966,0.577365,1.010702,1.609928,1.381038,0.429419,0.792227,15.136171,1.296447,2.541460,0.789420,1.044377,4.170452,1.955345,2.074657,0.618482,0.680004,5.639025,1.826105,1.519077,0.948564,1.198413,3.062268,1.592909,2.199091,0.808207,1.147363
1676060244.530272,1676060244.531047,31.000000,0.000000,4280.512695,4344.358887,4314.615234,4332.307617,4298.589844,4280.256348,4289.102539,4286.025879,4311.410156,4288.846191,4449.102539,4478.846191,4368.717773,4401.025879,0.000000,4.000000,85.000000,,,,0.000000,4.000000,4.000000,4.000000,4.000000,4.000000,4.000000,4.000000,4.000000,4.000000,4.000000,4.000000,4.000000,4.000000,4.000000,100.000000,,,,,,,,,,,,,,,,,,,,,,,,,,,,,,,,,,,,,,,,,,,,,,,,,,,,,,,,,,,,,,,,,,,,,,,,,,,,,,,,,,,,,,
1676060244.538081,1676060244.538855,32.000000,0.000000,4263.205078,4330.641113,4299.230957,4323.846191,4287.948730,4274.487305,4288.974121,4271.922852,4296.794922,4264.871582,4421.025879,4460.512695,4335.512695,4369.487305,0.000000,4.000000,85.000000,,,,0.000000,4.000000,4.000000,4.000000,4.000000,4.000000,4.000000,4.000000,4.000000,4.000000,4.000000,4.000000,4.000000,4.000000,4.000000,100.000000,,,,,,,,,,,,,,,,,,,,,,,,,,,,,,,,,,,,,,,,,,,,,,,,,,,,,,,,,,,,,,,,,,,,,,,,,,,,,,,,,,,,,,
1676060244.545889,1676060244.546564,33.000000,0.000000,4260.128418,4328.333496,4290.128418,4320.128418,4283.461426,4277.948730,4295.769043,4263.717773,4293.589844,4254.358887,4407.051270,4457.179688,4325.000000,4361.794922,0.000000,4.000000,85.000000,,,,0.000000,4.000000,4.000000,4.000000,4.000000,4.000000,4.000000,4.000000,4.000000,4.000000,4.000000,4.000000,4.000000,4.000000,4.000000,100.000000,,,,,,,,,,,,,,,,,,,,,,,,,,,,,,,,,,,,,,,,,,,,,,,,,,,,,,,,,,,,,,,,,,,,,,,,,,,,,,,,,,,,,,
1676060244.553697,1676060244.554372,34.000000,0.000000,4262.179688,4326.410156,4288.205078,4320.897461,4287.692383,4280.897461,4292.436035,4262.820313,4294.230957,4267.820313,4410.128418,4463.205078,4338.846191,4372.692383,0.000000,4.000000,85.000000,,,,0.000000,4.000000,4.000000,4.000000,4.000000,4.000000,4.000000,4.000000,4.000000,4.000000,4.000000,4.000000,4.000000,4.000000,4.000000,100.000000,,,,,,,,,,,,,,,,,,,,,,,,,,,,,,,,,,,,,,,,,,,,,,,,,,,,,,,,,,,,,,,,,,,,,,,,,,,,,,,,,,,,,,
1676060244.561506,1676060244.562081,35.000000,0.000000,4246.025879,4308.717773,4274.102539,4310.641113,4282.948730,4270.256348,4278.077148,4251.025879,4276.538574,4259.871582,4394.615234,4445.641113,4321.538574,4359.102539,0.000000,4.000000,85.000000,,,,0.000000,4.000000,4.000000,4.000000,4.000000,4.000000,4.000000,4.000000,4.000000,4.000000,4.000000,4.000000,4.000000,4.000000,4.000000,100.000000,,,,,,,,,,,,,,,,,,,,,,,,,,,,,,,,,,,,,,,,,,,,,,,,,,,,,,,,,,,,,,,,,,,,,,,,,,,,,,,,,,,,,,
1676060244.569314,1676060244.569889,36.000000,0.000000,4237.436035,4305.512695,4271.410156,4306.922852,4276.410156,4268.205078,4282.051270,4249.102539,4268.205078,4241.666504,4384.871582,4439.743652,4308.589844,4349.358887,0.000000,4.000000,85.000000,,,,0.000000,4.000000,4.000000,4.000000,4.000000,4.000000,4.000000,4.000000,4.000000,4.000000,4.000000,4.000000,4.000000,4.000000,4.000000,100.000000,,,,,,,,,,,,,,,,,,,,,,,,,,,,,,,,,,,,,,,,,,,,,,,,,,,,,,,,,,,,,,,,,,,,,,,,,,,,,,,,,,,,,,
1676060244.577123,1676060244.577598,37.000000,0.000000,4262.051270,4327.820313,4294.615234,4327.179688,4292.179688,4281.410156,4302.179688,4270.384766,4287.307617,4256.282227,4409.871582,4472.948730,4336.794922,4377.692383,0.000000,4.000000,85.000000,,,,0.000000,4.000000,4.000000,4.000000,4.000000,4.000000,4.000000,4.000000,4.000000,4.000000,4.000000,4.000000,4.000000,4.000000,4.000000,100.000000,,,,,,,,,,,,,,,,,,,,,,,,,,,,,,,,,,,,,,,,,,,,,,,,,,,,,,,,,,,,,,,,,,,,,,,,,,,,,,,,,,,,,,
1676060244.584931,1676060244.585406,38.000000,0.000000,4282.436035,4340.897461,4305.641113,4342.179688,4307.179688,4282.948730,4300.641113,4272.948730,4297.820313,4272.436035,4420.256348,4485.256348,4345.512695,4394.615234,0.000000,4.000000,85.000000,,,,0.000000,4.000000,4.000000,4.000000,4.000000,4.000000,4.000000,4.000000,4.000000,4.000000,4.000000,4.000000,4.000000,4.000000,4.000000,100.000000,,,,,,,,,,,,,,,,,,,,,,,,,,,,,,,,,,,,,,,,,,,,,,,,,,,,,,,,,,,,,,,,,,,,,,,,,,,,,,,,,,,,,,
1676060244.592739,1676060244.593115,39.000000,0.000000,4273.461426,4337.307617,4295.000000,4335.384766,4301.794922,4276.922852,4288.974121,4259.615234,4292.436035,4268.205078,4401.794922,4465.897461,4323.461426,4377.179688,0.000000,4.000000,85.000000,,,,0.000000,4.000000,4.000000,4.000000,4.000000,4.000000,4.000000,4.000000,4.000000,4.000000,4.000000,4.000000,4.000000,4.000000,4.000000,100.000000,,,,,,,,,,,,,,,,,,,,,,,,,,,,,,,,,,,,,,,,,,,,,,,,,,,,,,,,,,,,,,,,,,,,,,,,,,,,,,,,,,,,,,
1676060244.600548,1676060244.601023,40.000000,0.000000,4261.794922,4334.871582,4292.436035,4328.077148,4296.794922,4280.384766,4294.487305,4271.282227,4299.230957,4270.256348,4402.179688,4467.563965,4321.666504,4373.205078,0.000000,4.000000,85.000000,,,,0.000000,4.000000,4.000000,4.000000,4.000000,4.000000,4.000000,4.000000,4.000000,4.000000,4.000000,4.000000,4.000000,4.000000,4.000000,100.000000,,,,,,,,,,,,,,,,,,,,,,,,,,,,,,,,,,,,,,,,,,,,,,,,,,,,,,,,,,,,,,,,,,,,,,,,,,,,,,,,,,,,,,
1676060244.608356,1676060244.608832,41.000000,0.000000,4264.615234,4329.487305,4295.384766,4323.589844,4295.384766,4281.794922,4296.794922,4279.871582,4301.922852,4262.948730,4406.153809,4474.230957,4324.743652,4381.794922,0.000000,4.000000,85.000000,,,,0.000000,4.000000,4.000000,4.000000,4.000000,4.000000,4.000000,4.000000,4.000000,4.000000,4.000000,4.000000,4.000000,4.000000,4.000000,100.000000,,,,,,,,,,,,,,,,,,,,,,,,,,,,,,,,,,,,,,,,,,,,,,,,,,,,,,,,,,,,,,,,,,,,,,,,,,,,,,,,,,,,,,
1676060244.616165,1676060244.616640,42.000000,0.000000,4273.589844,4327.948730,4295.641113,4323.717773,4296.794922,4281.922852,4291.025879,4272.820313,4294.871582,4251.025879,4399.358887,4471.025879,4322.307617,4382.948730,0.000000,4.000000,85.000000,,,,0.000000,4.000000,4.000000,4.000000,4.000000,4.000000,4.000000,4.000000,4.000000,4.000000,4.000000,4.000000,4.000000,4.000000,4.000000,100.000000,,,,,,,,,,,,,,,,,,,,,,,,,,,,,,,,,,,,,,,,,,,,,,,,,,,,,,,,,,,,,,,,,,,,,,,,,,,,,,,,,,,,,,
1676060244.623973,1676060244.624349,43.000000,0.000000,4286.538574,4339.358887,4306.025879,4338.589844,4300.897461,4283.974121,4293.846191,4277.436035,4300.641113,4270.769043,4410.512695,4485.512695,4335.641113,4395.128418,0.000000,4.000000,85.000000,,,,0.000000,4.000000,4.000000,4.000000,4.000000,4.000000,4.000000,4.000000,4.000000,4.000000,4.000000,4.000000,4.000000,4.000000,4.000000,100.000000,,,,,,,,,,,,,,,,,,,,,,,,,,,,,,,,,,,,,,,,,,,,,,,,,,,,,,,,,,,,,,,,,,,,,,,,,,,,,,,,,,,,,,
1676060244.631781,1676060244.632257,44.000000,0.000000,4297.307617,4348.846191,4316.410156,4354.871582,4303.846191,4281.153809,4298.205078,4285.512695,4307.563965,4287.820313,4423.205078,4499.871582,4341.922852,4407.563965,0.000000,4.000000,85.000000,,,,0.000000,4.000000,4.000000,4.000000,4.000000,4.000000,4.000000,4.000000,4.000000,4.000000,4.000000,4.000000,4.000000,4.000000,4.000000,100.000000,,,,,,,,,,,,,,,,,,,,,,,,,,,,,,,,,,,,,,,,,,,,,,,,,,,,,,,,,,,,,,,,,,,,,,,,,,,,,,,,,,,,,,
1676060244.639590,1676060244.640065,45.000000,0.000000,4296.153809,4348.461426,4312.820313,4352.051270,4305.256348,4281.922852,4297.436035,4282.820313,4302.948730,4273.461426,4418.333496,4492.820313,4335.641113,4400.256348,0.000000,4.000000,85.000000,,,,0.000000,4.000000,4.000000,4.000000,4.000000,4.000000,4.000000,4.000000,4.000000,4.000000,4.000000,4.000000,4.000000,4.000000,4.000000,100.000000,,,,,,,,,,,,,,,,,,,,,,,,,,,,,,,,,,,,,,,,,,,,,,,,,,,,,,,,,,,,,,,,,,,,,,,,,,,,,,,,,,,,,,
1676060244.647398,1676060244.647974,46.000000,0.000000,4293.333496,4348.846191,4310.384766,4344.871582,4303.974121,4278.077148,4294.230957,4277.179688,4302.179688,4269.358887,4420.641113,4492.051270,4343.333496,4400.384766,0.000000,4.000000,85.000000,,,,0.000000,4.000000,4.000000,4.000000,4.000000,4.000000,4.000000,4.000000,4.000000,4.000000,4.000000,4.000000,4.000000,4.000000,4.000000,100.000000,,,,,,,,,,,,,,,,,2.095512,0.964155,1.450757,0.839948,0.664218,6.049353,2.301032,1.381128,1.386849,0.752739,1.115934,1.186691,1.626068,0.999744,0.491392,3.049573,1.289110,1.332661,1.211321,0.531912,0.277741,0.784203,1.029875,0.606396,0.343619,3.826808,1.716922,2.400319,0.518904,0.344932,2.189052,0.865880,0.579043,0.404211,0.365904,7.269773,0.828888,0.606552,0.502220,0.411391,0.617245,0.617810,0.686229,0.380880,0.489209,1.003791,1.188744,1.461615,0.403005,0.738822,13.200123,1.472352,2.603578,0.799314,0.879952,3.534515,1.993982,2.279119,0.626821,0.571653,5.417027,1.626503,1.508108,0.853309,1.060650,2.705803,1.404589,2.264822,0.783230,0.973379
1676060244.655206,1676060244.655782,47.000000,0.000000,4289.230957,4344.871582,4304.230957,4342.307617,4296.025879,4265.128418,4281.538574,4266.794922,4297.436035,4280.384766,4418.974121,4491.410156,4339.743652,4404.615234,0.000000,4.000000,85.000000,,,,0.000000,4.000000,4.000000,4.000000,4.000000,4.000000,4.000000,4.000000,4.000000,4.000000,4.000000,4.000000,4.000000,4.000000,4.000000,100.000000,,,,,,,,,,,,,,,,,,,,,,,,,,,,,,,,,,,,,,,,,,,,,,,,,,,,,,,,,,,,,,,,,,,,,,,,,,,,,,,,,,,,,,
1676060244.663015,1676060244.663691,48.000000,0.000000,4281.153809,4338.461426,4303.846191,4341.538574,4296.794922,4265.769043,4281.153809,4270.769043,4294.743652,4278.846191,4407.692383,4484.487305,4323.846191,4393.974121,0.000000,4.000000,85.000000,,,,0.000000,4.000000,4.000000,4.000000,4.000000,4.000000,4.000000,4.000000,4.000000,4.000000,4.000000,4.000000,4.000000,4.000000,4.000000,100.000000,,,,,,,,,,,,,,,,,,,,,,,,,,,,,,,,,,,,,,,,,,,,,,,,,,,,,,,,,,,,,,,,,,,,,,,,,,,,,,,,,,,,,,
1676060244.670823,1676060244.671499,49.000000,0.000000,4283.205078,4346.410156,4325.769043,4348.461426,4311.282227,4280.641113,4304.230957,4298.589844,4314.487305,4277.948730,4422.436035,4500.512695,4336.282227,4399.230957,0.000000,4.000000,85.000000,,,,0.000000,4.000000,4.000000,4.000000,4.000000,4.000000,4.000000,4.000000,4.000000,4.000000,4.000000,4.000000,4.000000,4.000000,4.000000,100.000000,,,,,,,,,,,,,,,,,,,,,,,,,,,,,,,,,,,,,,,,,,,,,,,,,,,,,,,,,,,,,,,,,,,,,,,,,,,,,,,,,,,,,,
1676060244.678632,1676060244.679308,50.000000,0.000000,4287.307617,4347.820313,4328.846191,4347.179688,4308.461426,4280.512695,4303.846191,4296.666504,4315.897461,4278.205078,4428.205078,4505.128418,4343.846191,4408.717773,0.000000,4.000000,85.000000,,,,0.000000,4.000000,4.000000,4.000000,4.000000,4.000000,4.000000,4.000000,4.000000,4.000000,4.000000,4.000000,4.000000,4.000000,4.000000,100.000000,,,,,,,,,,,,,,,,,,,,,,,,,,,,,,,,,,,,,,,,,,,,,,,,,,,,,,,,,,,,,,,,,,,,,,,,,,,,,,,,,,,,,,
1676060244.686440,1676060244.687116,51.000000,0.000000,4283.717773,4336.025879,4308.205078,4337.307617,4299.615234,4274.615234,4287.820313,4271.153809,4292.563965,4276.153809,4409.102539,4481.794922,4329.358887,4398.974121,0.000000,4.000000,85.000000,,,,0.000000,4.000000,4.000000,4.000000,4.000000,4.000000,4.000000,4.000000,4.000000,4.000000,4.000000,4.000000,4.000000,4.000000,4.000000,100.000000,,,,,,,,,,,,,,,,,,,,,,,,,,,,,,,,,,,,,,,,,,,,,,,,,,,,,,,,,,,,,,,,,,,,,,,,,,,,,,,,,,,,,,
1676060244.694248,1676060244.694825,52.000000,0.000000,4283.717773,4334.102539,4310.000000,4338.974121,4307.692383,4281.282227,4299.743652,4277.820313,4295.000000,4283.205078,4410.769043,4478.077148,4329.871582,4393.974121,0.000000,4.000000,85.000000,,,,0.000000,4.000000,4.000000,4.000000,4.000000,4.000000,4.000000,4.000000,4.000000,4.000000,4.000000,4.000000,4.000000,4.000000,4.000000,100.000000,,,,,,,,,,,,,,,,,,,,,,,,,,,,,,,,,,,,,,,,,,,,,,,,,,,,,,,,,,,,,,,,,,,,,,,,,,,,,,,,,,,,,,
1676060244.702057,1676060244.702633,53.000000,0.000000,4279.102539,4334.487305,4311.025879,4335.256348,4302.051270,4279.743652,4306.538574,4285.384766,4301.794922,4280.641113,4412.307617,4478.974121,4330.641113,4390.128418,0.000000,4.000000,85.000000,,,,0.000000,4.000000,4.000000,4.000000,4.000000,4.000000,4.000000,4.000000,4.000000,4.000000,4.000000,4.000000,4.000000,4.000000,4.000000,100.000000,,,,,,,,,,,,,,,,,,,,,,,,,,,,,,,,,,,,,,,,,,,,,,,,,,,,,,,,,,,,,,,,,,,,,,,,,,,,,,,,,,,,,,
1676060244.709865,1676060244.710342,54.000000,0.000000,4266.922852,4325.000000,4293.846191,4324.615234,4292.563965,4275.769043,4292.051270,4267.820313,4292.563965,4261.922852,4393.461426,4463.077148,4319.358887,4379.743652,0.000000,4.000000,85.000000,,,,0.000000,4.000000,4.000000,4.000000,4.000000,4.000000,4.000000,4.000000,4.000000,4.000000,4.000000,4.000000,4.000000,4.000000,4.000000,100.000000,,,,,,,,,,,,,,,,,,,,,,,,,,,,,,,,,,,,,,,,,,,,,,,,,,,,,,,,,,,,,,,,,,,,,,,,,,,,,,,,,,,,,,
1676060244.717673,1676060244.718150,55.000000,0.000000,4264.487305,4319.743652,4295.512695,4326.794922,4303.974121,4283.589844,4292.820313,4267.820313,4299.358887,4265.000000,4396.666504,4465.512695,4325.128418,4385.769043,0.000000,4.000000,85.000000,,,,0.000000,4.000000,4.000000,4.000000,4.000000,4.000000,4.000000,4.000000,4.000000,4.000000,4.000000,4.000000,4.000000,4.000000,4.000000,100.000000,,,,,,,,,,,,,,,,,,,,,,,,,,,,,,,,,,,,,,,,,,,,,,,,,,,,,,,,,,,,,,,,,,,,,,,,,,,,,,,,,,,,,,
1676060244.725482,1676060244.725858,56.000000,0.000000,4268.205078,4323.461426,4304.487305,4328.077148,4308.077148,4286.153809,4301.666504,4281.922852,4306.282227,4281.282227,4411.538574,4478.974121,4334.871582,4395.512695,0.000000,4.000000,85.000000,,,,0.000000,4.000000,4.000000,4.000000,4.000000,4.000000,4.000000,4.000000,4.000000,4.000000,4.000000,4.000000,4.000000,4.000000,4.000000,100.000000,,,,,,,,,,,,,,,,,,,,,,,,,,,,,,,,,,,,,,,,,,,,,,,,,,,,,,,,,,,,,,,,,,,,,,,,,,,,,,,,,,,,,,
1676060244.733290,1676060244.733667,57.000000,0.000000,4267.436035,4328.974121,4301.538574,4323.974121,4298.846191,4279.230957,4297.307617,4283.461426,4295.512695,4273.974121,4408.589844,4476.153809,4331.153809,4390.000000,0.000000,4.000000,85.000000,,,,0.000000,4.000000,4.000000,4.000000,4.000000,4.000000,4.000000,4.000000,4.000000,4.000000,4.000000,4.000000,4.000000,4.000000,4.000000,100.000000,,,,,,,,,,,,,,,,,,,,,,,,,,,,,,,,,,,,,,,,,,,,,,,,,,,,,,,,,,,,,,,,,,,,,,,,,,,,,,,,,,,,,,
1676060244.741099,1676060244.741375,58.000000,0.000000,4264.230957,4328.846191,4300.641113,4324.487305,4298.589844,4278.205078,4294.871582,4283.077148,4296.666504,4266.922852,4409.102539,4473.205078,4331.794922,4386.538574,0.000000,4.000000,85.000000,,,,0.000000,4.000000,4.000000,4.000000,4.000000,4.000000,4.000000,4.000000,4.000000,4.000000,4.000000,4.000000,4.000000,4.000000,4.000000,100.000000,,,,,,,,,,,,,,,,,,,,,,,,,,,,,,,,,,,,,,,,,,,,,,,,,,,,,,,,,,,,,,,,,,,,,,,,,,,,,,,,,,,,,,
1676060244.748907,1676060244.749284,59.000000,0.000000,4264.487305,4320.128418,4297.820313,4319.230957,4300.897461,4282.179688,4295.128418,4281.922852,4303.846191,4280.256348,4409.743652,4474.487305,4333.589844,4387.179688,0.000000,4.000000,85.000000,,,,0.000000,4.000000,4.000000,4.000000,4.000000,4.000000,4.000000,4.000000,4.000000,4.000000,4.000000,4.000000,4.000000,4.000000,4.000000,100.000000,,,,,,,,,,,,,,,,,,,,,,,,,,,,,,,,,,,,,,,,,,,,,,,,,,,,,,,,,,,,,,,,,,,,,,,,,,,,,,,,,,,,,,
1676060244.756715,1676060244.757092,60.000000,0.000000,4273.717773,4322.179688,4301.410156,4321.153809,4302.436035,4281.794922,4295.384766,4283.846191,4301.282227,4283.333496,4407.179688,4479.871582,4334.615234,4389.102539,0.000000,4.000000,85.000000,,,,0.000000,4.000000,4.000000,4.000000,4.000000,4.000000,4.000000,4.000000,4.000000,4.000000,4.000000,4.000000,4.000000,4.000000,4.000000,100.000000,,,,,,,,,,,,,,,,,,,,,,,,,,,,,,,,,,,,,,,,,,,,,,,,,,,,,,,,,,,,,,,,,,,,,,,,,,,,,,,,,,,,,,
1676060244.764524,1676060244.765001,61.000000,0.000000,4286.025879,4338.846191,4315.256348,4336.025879,4306.794922,4280.256348,4297.820313,4289.615234,4298.974121,4270.512695,4415.641113,4487.307617,4342.692383,4396.666504,0.000000,4.000000,85.000000,,,,0.000000,4.000000,4.000000,4.000000,4.000000,4.000000,4.000000,4.000000,4.000000,4.000000,4.000000,4.000000,4.000000,4.000000,4.000000,100.000000,,,,,,,,,,,,,,,,,,,,,,,,,,,,,,,,,,,,,,,,,,,,,,,,,,,,,,,,,,,,,,,,,,,,,,,,,,,,,,,,,,,,,,
1676060244.772332,1676060244.772809,62.000000,0.000000,4276.410156,4331.538574,4299.358887,4325.128418,4299.230957,4275.897461,4285.512695,4275.128418,4289.487305,4263.077148,4406.410156,4470.641113,4334.743652,4385.641113,0.000000,4.000000,85.000000,,,,0.000000,4.000000,4.000000,4.000000,4.000000,4.000000,4.000000,4.000000,4.000000,4.000000,4.000000,4.000000,4.000000,4.000000,4.000000,100.000000,,,,,,,,,,,,,,,,,1.916569,0.895612,1.546204,0.777958,0.634338,5.758156,1.795063,1.428347,1.283447,0.725903,1.017661,1.093756,1.645584,0.925795,0.452523,3.023221,0.925199,1.407797,1.108700,0.473867,0.284611,0.644774,1.098498,0.599477,0.325966,3.196559,1.467174,2.103895,0.543654,0.319623,1.724234,0.735987,0.639630,0.403911,0.349449,2.579575,0.744853,0.718407,0.546013,0.373767,0.558794,0.504736,0.807008,0.425703,0.428265,0.964164,0.862607,1.568404,0.420184,0.678735,11.169428,1.889264,2.672864,0.930498,0.763568,2.981502,1.942915,2.399074,0.690045,0.503439,5.024784,1.469790,1.498772,0.917644,0.987143,2.301669,1.231463,2.246287,0.844294,0.834367
1676060244.780141,1676060244.780717,63.000000,0.000000,4258.974121,4310.128418,4270.641113,4303.589844,4295.769043,4276.922852,4275.384766,4255.384766,4277.436035,4258.077148,4383.461426,4446.794922,4318.461426,4367.436035,0.000000,4.000000,85.000000,,,,0.000000,4.000000,4.000000,4.000000,4.000000,4.000000,4.000000,4.000000,4.000000,4.000000,4.000000,4.000000,4.000000,4.000000,4.000000,100.000000,,,,,,,,,,,,,,,,,,,,,,,,,,,,,,,,,,,,,,,,,,,,,,,,,,,,,,,,,,,,,,,,,,,,,,,,,,,,,,,,,,,,,,
1676060244.787949,1676060244.788526,64.000000,0.000000,4269.487305,4323.077148,4286.282227,4321.922852,4310.128418,4290.641113,4293.717773,4272.948730,4290.384766,4264.230957,4399.743652,4462.563965,4337.179688,4386.025879,2535.000000,4.000000,85.000000,,,,0.000000,4.000000,4.000000,4.000000,4.000000,4.000000,4.000000,4.000000,4.000000,4.000000,4.000000,4.000000,4.000000,4.000000,4.000000,100.000000,,,,,,,,,,,,,,,,,,,,,,,,,,,,,,,,,,,,,,,,,,,,,,,,,,,,,,,,,,,,,,,,,,,,,,,,,,,,,,,,,,,,,,
1676060244.795757,1676060244.796434,65.000000,0.000000,4282.820313,4341.153809,4308.974121,4340.897461,4311.794922,4291.794922,4305.769043,4291.153809,4305.000000,4279.871582,4421.922852,4481.410156,4356.153809,4403.077148,2483.000000,4.000000,85.000000,,,,0.000000,4.000000,4.000000,4.000000,4.000000,4.000000,4.000000,4.000000,4.000000,4.000000,4.000000,4.000000,4.000000,4.000000,4.000000,100.000000,,,,,,,,,,,,,,,,,,,,,,,,,,,,,,,,,,,,,,,,,,,,,,,,,,,,,,,,,,,,,,,,,,,,,,,,,,,,,,,,,,,,,,
1676060244.803566,1676060244.804343,66.000000,0.000000,4278.717773,4332.563965,4298.461426,4326.282227,4300.897461,4282.051270,4296.025879,4279.230957,4296.153809,4276.410156,4407.436035,4467.436035,4335.897461,4384.615234,2413.000000,4.000000,85.000000,,,,0.000000,4.000000,4.000000,4.000000,4.000000,4.000000,4.000000,4.000000,4.000000,4.000000,4.000000,4.000000,4.000000,4.000000,4.000000,100.000000,,,,,,,,,,,,,,,,,,,,,,,,,,,,,,,,,,,,,,,,,,,,,,,,,,,,,,,,,,,,,,,,,,,,,,,,,,,,,,,,,,,,,,
1676060244.811374,1676060244.812151,67.000000,0.000000,4271.666504,4319.615234,4286.282227,4315.384766,4295.897461,4281.794922,4291.538574,4271.922852,4287.307617,4261.922852,4400.000000,4453.333496,4319.102539,4371.153809,2479.000000,4.000000,85.000000,,,,0.000000,4.000000,4.000000,4.000000,4.000000,4.000000,4.000000,4.000000,4.000000,4.000000,4.000000,4.000000,4.000000,4.000000,4.000000,100.000000,,,,,,,,,,,,,,,,,,,,,,,,,,,,,,,,,,,,,,,,,,,,,,,,,,,,,,,,,,,,,,,,,,,,,,,,,,,,,,,,,,,,,,
1676060244.819183,1676060244.819959,68.000000,0.000000,4267.692383,4315.256348,4291.153809,4321.153809,4298.974121,4287.179688,4297.307617,4281.666504,4295.128418,4267.563965,4423.205078,4461.922852,4329.743652,4378.589844,2438.000000,4.000000,85.000000,,,,0.000000,4.000000,4.000000,4.000000,4.000000,4.000000,4.000000,4.000000,4.000000,4.000000,4.000000,4.000000,4.000000,4.000000,4.000000,100.000000,,,,,,,,,,,,,,,,,,,,,,,,,,,,,,,,,,,,,,,,,,,,,,,,,,,,,,,,,,,,,,,,,,,,,,,,,,,,,,,,,,,,,,
1676060244.826991,1676060244.827868,69.000000,0.000000,4265.256348,4313.974121,4297.307617,4319.230957,4299.358887,4283.205078,4299.358887,4290.256348,4305.256348,4286.794922,4447.820313,4473.205078,4342.692383,4386.282227,2384.000000,4.000000,85.000000,,,,0.000000,4.000000,4.000000,4.000000,4.000000,4.000000,4.000000,4.000000,4.000000,4.000000,4.000000,4.000000,4.000000,4.000000,4.000000,100.000000,,,,,,,,,,,,,,,,,,,,,,,,,,,,,,,,,,,,,,,,,,,,,,,,,,,,,,,,,,,,,,,,,,,,,,,,,,,,,,,,,,,,,,
1676060244.834799,1676060244.835676,70.000000,0.000000,4264.615234,4309.743652,4290.512695,4308.077148,4286.153809,4268.717773,4287.051270,4279.102539,4291.282227,4270.897461,4449.230957,4467.051270,4343.717773,4384.358887,2241.000000,4.000000,85.000000,,,,0.000000,4.000000,4.000000,4.000000,4.000000,4.000000,4.000000,4.000000,4.000000,4.000000,4.000000,4.000000,4.000000,4.000000,4.000000,100.000000,,,,,,,,,,,,,,,,,,,,,,,,,,,,,,,,,,,,,,,,,,,,,,,,,,,,,,,,,,,,,,,,,,,,,,,,,,,,,,,,,,,,,,
1676060244.842608,1676060244.843585,71.000000,0.000000,4271.153809,4310.769043,4284.230957,4311.922852,4282.692383,4265.256348,4274.871582,4262.948730,4273.077148,4241.410156,4442.179688,4455.769043,4340.000000,4380.769043,2242.000000,4.000000,85.000000,,,,0.000000,4.000000,4.000000,4.000000,4.000000,4.000000,4.000000,4.000000,4.000000,4.000000,4.000000,4.000000,4.000000,4.000000,4.000000,100.000000,,,,,,,,,,,,,,,,,,,,,,,,,,,,,,,,,,,,,,,,,,,,,,,,,,,,,,,,,,,,,,,,,,,,,,,,,,,,,,,,,,,,,,
1676060244.850416,1676060244.851393,72.000000,0.000000,4277.436035,4318.461426,4293.461426,4321.025879,4295.512695,4273.846191,4283.846191,4268.589844,4282.820313,4255.000000,4451.410156,4457.051270,4337.051270,4380.769043,2279.000000,4.000000,85.000000,,,,0.000000,4.000000,4.000000,4.000000,4.000000,4.000000,4.000000,4.000000,4.000000,4.000000,4.000000,4.000000,4.000000,4.000000,4.000000,100.000000,,,,,,,,,,,,,,,,,,,,,,,,,,,,,,,,,,,,,,,,,,,,,,,,,,,,,,,,,,,,,,,,,,,,,,,,,,,,,,,,,,,,,,
1676060244.858225,1676060244.859301,73.000000,0.000000,4279.358887,4329.871582,4309.102539,4323.333496,4299.487305,4272.436035,4297.948730,4282.948730,4298.333496,4285.128418,4476.922852,4471.153809,4344.102539,4388.717773,2249.000000,4.000000,85.000000,,,,0.000000,4.000000,4.000000,4.000000,4.000000,4.000000,4.000000,4.000000,4.000000,4.000000,4.000000,4.000000,4.000000,4.000000,4.000000,100.000000,,,,,,,,,,,,,,,,,,,,,,,,,,,,,,,,,,,,,,,,,,,,,,,,,,,,,,,,,,,,,,,,,,,,,,,,,,,,,,,,,,,,,,
1676060244.866033,1676060244.867110,74.000000,0.000000,4286.922852,4339.230957,4315.000000,4332.179688,4300.256348,4270.128418,4298.333496,4284.487305,4301.153809,4289.871582,4492.692383,4482.948730,4355.000000,4401.153809,2740.000000,4.000000,85.000000,,,,0.000000,4.000000,4.000000,4.000000,4.000000,4.000000,4.000000,4.000000,4.000000,4.000000,4.000000,4.000000,4.000000,4.000000,4.000000,100.000000,,,,,,,,,,,,,,,,,,,,,,,,,,,,,,,,,,,,,,,,,,,,,,,,,,,,,,,,,,,,,,,,,,,,,,,,,,,,,,,,,,,,,,
1676060244.873841,1676060244.874918,75.000000,0.000000,4287.820313,4334.102539,4307.948730,4333.461426,4302.820313,4284.230957,4295.256348,4281.153809,4302.436035,4276.538574,4485.384766,4476.410156,4347.179688,4394.102539,2937.000000,4.000000,85.000000,,,,0.000000,4.000000,4.000000,4.000000,4.000000,4.000000,4.000000,4.000000,4.000000,4.000000,4.000000,4.000000,4.000000,4.000000,4.000000,100.000000,,,,,,,,,,,,,,,,,,,,,,,,,,,,,,,,,,,,,,,,,,,,,,,,,,,,,,,,,,,,,,,,,,,,,,,,,,,,,,,,,,,,,,
1676060244.881650,1676060244.882727,76.000000,0.000000,4260.000000,4314.358887,4291.410156,4313.974121,4293.717773,4289.230957,4295.128418,4278.077148,4296.025879,4267.179688,4470.897461,4453.717773,4327.179688,4366.666504,3144.000000,4.000000,85.000000,,,,0.000000,4.000000,4.000000,4.000000,4.000000,4.000000,4.000000,4.000000,4.000000,4.000000,4.000000,4.000000,4.000000,4.000000,4.000000,100.000000,,,,,,,,,,,,,,,,,,,,,,,,,,,,,,,,,,,,,,,,,,,,,,,,,,,,,,,,,,,,,,,,,,,,,,,,,,,,,,,,,,,,,,
1676060244.889458,1676060244.890435,77.000000,0.000000,4245.512695,4309.871582,4283.461426,4306.538574,4292.179688,4278.717773,4295.897461,4276.282227,4284.743652,4263.717773,4473.077148,4441.794922,4325.512695,4358.461426,3261.000000,4.000000,85.000000,,,,0.000000,4.000000,4.000000,4.000000,4.000000,4.000000,4.000000,4.000000,4.000000,4.000000,4.000000,4.000000,4.000000,4.000000,4.000000,100.000000,,,,,,,,,,,,,,,,,,,,,,,,,,,,,,,,,,,,,,,,,,,,,,,,,,,,,,,,,,,,,,,,,,,,,,,,,,,,,,,,,,,,,,
1676060244.897266,1676060244.898244,78.000000,0.000000,4262.692383,4314.743652,4285.512695,4311.025879,4297.051270,4277.307617,4291.922852,4274.487305,4282.692383,4261.666504,4481.282227,4445.000000,4329.358887,4368.461426,2740.000000,4.000000,85.000000,,,,0.000000,4.000000,4.000000,4.000000,4.000000,4.000000,4.000000,4.000000,4.000000,4.000000,4.000000,4.000000,4.000000,4.000000,4.000000,100.000000,1.000000,66.666664,4.000000,4.000000,4.000000,4.000000,3.000000,4.000000,4.000000,1.000000,4.000000,4.000000,4.000000,4.000000,4.000000,4.000000,1.654584,0.834906,1.636705,0.726593,0.638035,5.136287,1.358299,1.437218,1.116125,0.704825,0.856526,0.975457,1.603682,0.829944,0.444097,2.664252,0.691112,1.424427,0.945685,0.441800,0.341725,0.523359,1.130068,0.559440,0.328509,2.332620,1.101805,1.683953,0.534066,0.296754,1.212914,0.573367,0.663198,0.423768,0.346781,0.825791,0.693564,0.829090,0.591863,0.353397,0.488479,0.457564,0.934092,0.478498,0.395074,0.908788,0.700239,1.684707,0.474222,0.627212,9.433466,2.558969,2.792699,1.119284,0.701296,2.444244,1.833933,2.459522,0.783318,0.478970,4.420393,1.375988,1.554984,1.068621,0.979115,1.932240,1.129755,2.207500,0.940084,0.757615
1676060244.905075,1676060244.905952,79.000000,0.000000,4257.179688,4298.717773,4275.256348,4297.948730,4284.487305,4277.820313,4281.025879,4267.692383,4280.897461,4261.282227,4471.922852,4437.436035,4315.897461,4358.974121,2937.000000,4.000000,85.000000,,,,0.000000,4.000000,4.000000,4.000000,4.000000,4.000000,4.000000,4.000000,4.000000,4.000000,4.000000,4.000000,4.000000,4.000000,4.000000,100.000000,,,,,,,,,,,,,,,,,,,,,,,,,,,,,,,,,,,,,,,,,,,,,,,,,,,,,,,,,,,,,,,,,,,,,,,,,,,,,,,,,,,,,,
1676060244.912883,1676060244.913761,80.000000,0.000000,4246.666504,4295.000000,4276.153809,4298.846191,4282.692383,4275.897461,4282.820313,4270.512695,4283.974121,4259.102539,4473.461426,4436.666504,4317.692383,4355.641113,3144.000000,4.000000,85.000000,,,,0.000000,4.000000,4.000000,4.000000,4.000000,4.000000,4.000000,4.000000,4.000000,4.000000,4.000000,4.000000,4.000000,4.000000,4.000000,100.000000,,,,,,,,,,,,,,,,,,,,,,,,,,,,,,,,,,,,,,,,,,,,,,,,,,,,,,,,,,,,,,,,,,,,,,,,,,,,,,,,,,,,,,
1676060244.920691,1676060244.921469,81.000000,0.000000,4270.512695,4319.102539,4302.563965,4320.897461,4299.871582,4280.512695,4299.615234,4287.820313,4301.538574,4261.153809,4494.230957,4459.230957,4344.230957,4381.410156,3261.000000,4.000000,85.000000,,,,0.000000,4.000000,4.000000,4.000000,4.000000,4.000000,4.000000,4.000000,4.000000,4.000000,4.000000,4.000000,4.000000,4.000000,4.000000,100.000000,,,,,,,,,,,,,,,,,,,,,,,,,,,,,,,,,,,,,,,,,,,,,,,,,,,,,,,,,,,,,,,,,,,,,,,,,,,,,,,,,,,,,,
1676060244.928500,1676060244.929278,82.000000,0.000000,4284.230957,4326.538574,4309.358887,4318.846191,4298.333496,4282.179688,4300.384766,4288.589844,4303.846191,4266.794922,4491.666504,4469.871582,4351.025879,4391.794922,2740.000000,4.000000,85.000000,1,1,1,0.000000,4.000000,4.000000,4.000000,4.000000,4.000000,4.000000,4.000000,4.000000,4.000000,4.000000,4.000000,4.000000,4.000000,4.000000,100.000000,,,,,,,,,,,,,,,,,,,,,,,,,,,,,,,,,,,,,,,,,,,,,,,,,,,,,,,,,,,,,,,,,,,,,,,,,,,,,,,,,,,,,,
1676060244.936308,1676060244.936986,83.000000,0.000000,4270.512695,4310.384766,4291.922852,4305.897461,4289.743652,4277.563965,4289.743652,4273.333496,4290.769043,4270.128418,4468.461426,4454.358887,4336.025879,4374.871582,2937.000000,4.000000,85.000000,,,,0.000000,4.000000,4.000000,4.000000,4.000000,4.000000,4.000000,4.000000,4.000000,4.000000,4.000000,4.000000,4.000000,4.000000,4.000000,100.000000,,,,,,,,,,,,,,,,,,,,,,,,,,,,,,,,,,,,,,,,,,,,,,,,,,,,,,,,,,,,,,,,,,,,,,,,,,,,,,,,,,,,,,
1676060244.944117,1676060244.944795,84.000000,0.000000,4272.179688,4310.897461,4297.692383,4317.179688,4298.205078,4277.563965,4295.000000,4278.846191,4299.230957,4276.282227,4469.615234,4454.871582,4340.000000,4381.282227,3144.000000,4.000000,85.000000,,,,0.000000,4.000000,4.000000,4.000000,4.000000,4.000000,4.000000,4.000000,4.000000,4.000000,4.000000,4.000000,4.000000,4.000000,4.000000,100.000000,,,,,,,,,,,,,,,,,,,,,,,,,,,,,,,,,,,,,,,,,,,,,,,,,,,,,,,,,,,,,,,,,,,,,,,,,,,,,,,,,,,,,,
1676060244.951925,1676060244.952503,85.000000,0.000000,4286.282227,4329.743652,4315.897461,4332.307617,4302.948730,4283.077148,4306.153809,4298.333496,4315.641113,4287.692383,4486.025879,4475.641113,4357.307617,4402.820313,3261.000000,4.000000,85.000000,,,,0.000000,4.000000,4.000000,4.000000,4.000000,4.000000,4.000000,4.000000,4.000000,4.000000,4.000000,4.000000,4.000000,4.000000,4.000000,100.000000,,,,,,,,,,,,,,,,,,,,,,,,,,,,,,,,,,,,,,,,,,,,,,,,,,,,,,,,,,,,,,,,,,,,,,,,,,,,,,,,,,,,,,
1676060244.959733,1676060244.960312,86.000000,0.000000,4285.128418,4330.641113,4310.256348,4321.025879,4297.436035,4283.717773,4299.743652,4295.512695,4308.846191,4286.794922,4475.897461,4477.692383,4357.436035,4397.051270,2740.000000,4.000000,85.000000,,,,0.000000,4.000000,4.000000,4.000000,4.000000,4.000000,4.000000,4.000000,4.000000,4.000000,4.000000,4.000000,4.000000,4.000000,4.000000,100.000000,,,,,,,,,,,,,,,,,,,,,,,,,,,,,,,,,,,,,,,,,,,,,,,,,,,,,,,,,,,,,,,,,,,,,,,,,,,,,,,,,,,,,,
1676060244.967542,1676060244.968020,87.000000,0.000000,4266.666504,4302.563965,4289.230957,4299.358887,4291.153809,4277.307617,4281.538574,4268.333496,4288.846191,4257.948730,4443.974121,4449.230957,4335.128418,4368.717773,2937.000000,4.000000,85.000000,,,,0.000000,4.000000,4.000000,4.000000,4.000000,4.000000,4.000000,4.000000,4.000000,4.000000,4.000000,4.000000,4.000000,4.000000,4.000000,100.000000,,,,,,,,,,,,,,,,,,,,,,,,,,,,,,,,,,,,,,,,,,,,,,,,,,,,,,,,,,,,,,,,,,,,,,,,,,,,,,,,,,,,,,
1676060244.975350,1676060244.975829,88.000000,0.000000,4255.384766,4291.025879,4284.871582,4298.077148,4292.692383,4275.641113,4282.948730,4262.692383,4286.410156,4251.025879,4434.487305,4439.358887,4327.820313,4364.230957,3144.000000,4.000000,85.000000,,,,0.000000,4.000000,4.000000,4.000000,4.000000,4.000000,4.000000,4.000000,4.000000,4.000000,4.000000,4.000000,4.000000,4.000000,4.000000,100.000000,,,,,,,,,,,,,,,,,,,,,,,,,,,,,,,,,,,,,,,,,,,,,,,,,,,,,,,,,,,,,,,,,,,,,,,,,,,,,,,,,,,,,,
1676060244.983158,1676060244.983537,89.000000,0.000000,4274.871582,4315.897461,4303.717773,4317.051270,4304.743652,4282.051270,4304.102539,4291.922852,4303.589844,4283.077148,4461.666504,4469.487305,4356.794922,4395.256348,3261.000000,4.000000,85.000000,,,,0.000000,4.000000,4.000000,4.000000,4.000000,4.000000,4.000000,4.000000,4.000000,4.000000,4.000000,4.000000,4.000000,4.000000,4.000000,100.000000,,,,,,,,,,,,,,,,,,,,,,,,,,,,,,,,,,,,,,,,,,,,,,,,,,,,,,,,,,,,,,,,,,,,,,,,,,,,,,,,,,,,,,
1676060244.990967,1676060244.991346,90.000000,0.000000,4283.846191,4320.000000,4307.436035,4314.230957,4305.769043,4284.487305,4306.282227,4297.820313,4304.615234,4288.846191,4466.025879,4475.256348,4365.384766,4402.436035,2740.000000,4.000000,85.000000,,,,0.000000,4.000000,4.000000,4.000000,4.000000,4.000000,4.000000,4.000000,4.000000,4.000000,4.000000,4.000000,4.000000,4.000000,4.000000,100.000000,,,,,,,,,,,,,,,,,,,,,,,,,,,,,,,,,,,,,,,,,,,,,,,,,,,,,,,,,,,,,,,,,,,,,,,,,,,,,,,,,,,,,,
1676060244.998775,1676060244.999054,91.000000,0.000000,4265.897461,4296.025879,4288.846191,4293.846191,4292.179688,4281.282227,4290.512695,4277.563965,4292.179688,4270.128418,4441.025879,4450.769043,4343.974121,4381.666504,2937.000000,4.000000,85.000000,,,,0.000000,4.000000,4.000000,4.000000,4.000000,4.000000,4.000000,4.000000,4.000000,4.000000,4.000000,4.000000,4.000000,4.000000,4.000000,100.000000,,,,,,,,,,,,,,,,,,,,,,,,,,,,,,,,,,,,,,,,,,,,,,,,,,,,,,,,,,,,,,,,,,,,,,,,,,,,,,,,,,,,,,
1676060245.006584,1676060245.006963,92.000000,0.000000,4268.461426,4292.692383,4293.461426,4303.077148,4289.230957,4281.025879,4293.333496,4283.717773,4299.871582,4279.102539,4448.461426,4460.000000,4348.077148,4388.077148,3144.000000,4.000000,85.000000,,,,0.000000,4.000000,4.000000,4.000000,4.000000,4.000000,4.000000,4.000000,4.000000,4.000000,4.000000,4.000000,4.000000,4.000000,4.000000,100.000000,,,,,,,,,,,,,,,,,,,,,,,,,,,,,,,,,,,,,,,,,,,,,,,,,,,,,,,,,,,,,,,,,,,,,,,,,,,,,,,,,,,,,,
1676060245.014392,1676060245.014771,93.000000,0.000000,4285.897461,4305.897461,4312.051270,4316.410156,4299.358887,4280.641113,4304.358887,4301.282227,4310.384766,4292.307617,4465.769043,4479.102539,4365.641113,4405.128418,3261.000000,4.000000,85.000000,,,,0.000000,4.000000,4.000000,4.000000,4.000000,4.000000,4.000000,4.000000,4.000000,4.000000,4.000000,4.000000,4.000000,4.000000,4.000000,100.000000,,,,,,,,,,,,,,,,,,,,,,,,,,,,,,,,,,,,,,,,,,,,,,,,,,,,,,,,,,,,,,,,,,,,,,,,,,,,,,,,,,,,,,
1676060245.022200,1676060245.022679,94.000000,0.000000,4280.641113,4304.487305,4303.974121,4302.692383,4298.077148,4276.666504,4295.641113,4287.820313,4298.205078,4275.384766,4446.666504,4462.436035,4352.948730,4390.641113,2740.000000,4.000000,85.000000,,,,0.000000,4.000000,4.000000,4.000000,4.000000,4.000000,4.000000,4.000000,4.000000,4.000000,4.000000,4.000000,4.000000,4.000000,4.000000,100.000000,,,,,,,,,,,,,,,,,1.390603,0.799913,1.741148,0.719055,0.661345,4.233119,1.025401,1.426893,0.938936,0.675891,0.682803,0.867074,1.556679,0.754612,0.454575,2.108636,0.588437,1.410068,0.784837,0.428117,0.441485,0.439400,1.139848,0.497232,0.337334,1.476173,0.734629,1.283682,0.491328,0.277970,0.784717,0.428463,0.648425,0.448710,0.352459,0.480356,0.702039,0.909872,0.630889,0.347953,0.439325,0.500873,1.055359,0.525351,0.382665,0.869840,0.705280,1.773266,0.556803,0.600033,8.243448,3.360785,2.951249,1.306906,0.689220,1.911107,1.738007,2.480845,0.893134,0.492123,3.738697,1.331629,1.691475,1.230349,1.016791,1.623809,1.122837,2.180115,1.027748,0.751390
1676060245.030009,1676060245.030488,95.000000,0.000000,4275.128418,4299.743652,4294.102539,4299.102539,4291.666504,4278.333496,4289.102539,4272.179688,4293.205078,4271.794922,4432.307617,4451.666504,4339.615234,4381.153809,2937.000000,4.000000,85.000000,,,,0.000000,4.000000,4.000000,4.000000,4.000000,4.000000,4.000000,4.000000,4.000000,4.000000,4.000000,4.000000,4.000000,4.000000,4.000000,100.000000,,,,,,,,,,,,,,,,,,,,,,,,,,,,,,,,,,,,,,,,,,,,,,,,,,,,,,,,,,,,,,,,,,,,,,,,,,,,,,,,,,,,,,
1676060245.037817,1676060245.038396,96.000000,0.000000,4282.563965,4305.384766,4300.897461,4313.974121,4293.846191,4279.615234,4295.128418,4284.230957,4303.461426,4279.230957,4445.128418,4461.538574,4352.051270,4395.897461,3144.000000,4.000000,85.000000,,,,0.000000,4.000000,4.000000,4.000000,4.000000,4.000000,4.000000,4.000000,4.000000,4.000000,4.000000,4.000000,4.000000,4.000000,4.000000,100.000000,,,,,,,,,,,,,,,,,,,,,,,,,,,,,,,,,,,,,,,,,,,,,,,,,,,,,,,,,,,,,,,,,,,,,,,,,,,,,,,,,,,,,,
1676060245.045626,1676060245.046205,97.000000,0.000000,4284.743652,4311.666504,4301.410156,4314.358887,4297.307617,4277.563965,4299.871582,4297.307617,4300.256348,4264.871582,4445.641113,4460.000000,4360.128418,4397.692383,3261.000000,4.000000,85.000000,,,,0.000000,4.000000,4.000000,4.000000,4.000000,4.000000,4.000000,4.000000,4.000000,4.000000,4.000000,4.000000,4.000000,4.000000,4.000000,100.000000,,,,,,,,,,,,,,,,,,,,,,,,,,,,,,,,,,,,,,,,,,,,,,,,,,,,,,,,,,,,,,,,,,,,,,,,,,,,,,,,,,,,,,
1676060245.053434,1676060245.054113,98.000000,0.000000,4282.051270,4310.512695,4300.128418,4308.077148,4297.563965,4285.128418,4303.205078,4291.794922,4294.871582,4258.077148,4434.102539,4458.589844,4353.974121,4388.846191,2740.000000,4.000000,85.000000,,,,0.000000,4.000000,4.000000,4.000000,4.000000,4.000000,4.000000,4.000000,4.000000,4.000000,4.000000,4.000000,4.000000,4.000000,4.000000,100.000000,,,,,,,,,,,,,,,,,,,,,,,,,,,,,,,,,,,,,,,,,,,,,,,,,,,,,,,,,,,,,,,,,,,,,,,,,,,,,,,,,,,,,,
1676060245.061242,1676060245.061921,99.000000,0.000000,4274.102539,4300.641113,4297.563965,4304.487305,4293.717773,4288.846191,4300.897461,4279.871582,4297.179688,4267.307617,4419.871582,4454.743652,4339.615234,4377.563965,2937.000000,4.000000,85.000000,,,,0.000000,4.000000,4.000000,4.000000,4.000000,4.000000,4.000000,4.000000,4.000000,4.000000,4.000000,4.000000,4.000000,4.000000,4.000000,100.000000,,,,,,,,,,,,,,,,,,,,,,,,,,,,,,,,,,,,,,,,,,,,,,,,,,,,,,,,,,,,,,,,,,,,,,,,,,,,,,,,,,,,,,
1676060245.069051,1676060245.069830,100.000000,0.000000,4262.948730,4292.820313,4284.102539,4294.615234,4292.692383,4281.025879,4291.666504,4276.282227,4288.461426,4264.358887,4402.948730,4437.692383,4323.589844,4366.538574,3144.000000,4.000000,85.000000,,,,0.000000,4.000000,4.000000,4.000000,4.000000,4.000000,4.000000,4.000000,4.000000,4.000000,4.000000,4.000000,4.000000,4.000000,4.000000,100.000000,,,,,,,,,,,,,,,,,,,,,,,,,,,,,,,,,,,,,,,,,,,,,,,,,,,,,,,,,,,,,,,,,,,,,,,,,,,,,,,,,,,,,,
1676060245.076859,1676060245.077638,101.000000,0.000000,4261.794922,4295.384766,4280.512695,4291.666504,4295.256348,4281.922852,4291.794922,4279.615234,4279.230957,4258.461426,4404.487305,4434.615234,4323.974121,4371.410156,3261.000000,4.000000,85.000000,,,,0.000000,4.000000,4.000000,4.000000,4.000000,4.000000,4.000000,4.000000,4.000000,4.000000,4.000000,4.000000,4.000000,4.000000,4.000000,100.000000,,,,,,,,,,,,,,,,,,,,,,,,,,,,,,,,,,,,,,,,,,,,,,,,,,,,,,,,,,,,,,,,,,,,,,,,,,,,,,,,,,,,,,
1676060245.084668,1676060245.085347,102.000000,0.000000,4268.846191,4299.871582,4289.487305,4296.922852,4293.333496,4284.871582,4297.692383,4278.461426,4285.512695,4263.717773,4415.641113,4450.512695,4338.974121,4380.000000,2740.000000,4.000000,85.000000,,,,0.000000,4.000000,4.000000,4.000000,4.000000,4.000000,4.000000,4.000000,4.000000,4.000000,4.000000,4.000000,4.000000,4.000000,4.000000,100.000000,,,,,,,,,,,,,,,,,,,,,,,,,,,,,,,,,,,,,,,,,,,,,,,,,,,,,,,,,,,,,,,,,,,,,,,,,,,,,,,,,,,,,,
1676060245.092476,1676060245.093155,103.000000,0.000000,4277.563965,4308.846191,4294.230957,4303.846191,4292.179688,4278.846191,4297.179688,4280.769043,4295.641113,4261.794922,4420.641113,4460.512695,4350.897461,4385.641113,2937.000000,4.000000,85.000000,,,,0.000000,4.000000,4.000000,4.000000,4.000000,4.000000,4.000000,4.000000,4.000000,4.000000,4.000000,4.000000,4.000000,4.000000,4.000000,100.000000,,,,,,,,,,,,,,,,,,,,,,,,,,,,,,,,,,,,,,,,,,,,,,,,,,,,,,,,,,,,,,,,,,,,,,,,,,,,,,,,,,,,,,
1676060245.100284,1676060245.100864,104.000000,0.000000,4283.077148,4314.230957,4303.333496,4310.897461,4300.384766,4280.256348,4297.051270,4289.871582,4300.000000,4263.717773,4426.538574,4462.820313,4353.461426,4396.410156,3144.000000,4.000000,85.000000,,,,0.000000,4.000000,4.000000,4.000000,4.000000,4.000000,4.000000,4.000000,4.000000,4.000000,4.000000,4.000000,4.000000,4.000000,4.000000,100.000000,,,,,,,,,,,,,,,,,,,,,,,,,,,,,,,,,,,,,,,,,,,,,,,,,,,,,,,,,,,,,,,,,,,,,,,,,,,,,,,,,,,,,,
1676060245.108093,1676060245.108772,105.000000,0.000000,4279.871582,4303.589844,4308.205078,4310.256348,4303.846191,4285.128418,4296.282227,4289.358887,4298.461426,4276.282227,4428.589844,4461.538574,4346.538574,4395.256348,3261.000000,4.000000,85.000000,,,,0.000000,4.000000,4.000000,4.000000,4.000000,4.000000,4.000000,4.000000,4.000000,4.000000,4.000000,4.000000,4.000000,4.000000,4.000000,100.000000,,,,,,,,,,,,,,,,,,,,,,,,,,,,,,,,,,,,,,,,,,,,,,,,,,,,,,,,,,,,,,,,,,,,,,,,,,,,,,,,,,,,,,
1676060245.115901,1676060245.116581,106.000000,0.000000,4277.820313,4301.922852,4299.743652,4307.563965,4298.205078,4282.051270,4294.615234,4282.436035,4296.666504,4280.000000,4423.333496,4459.230957,4343.077148,4384.487305,2740.000000,4.000000,85.000000,,,,0.000000,4.000000,4.000000,4.000000,4.000000,4.000000,4.000000,4.000000,4.000000,4.000000,4.000000,4.000000,4.000000,4.000000,4.000000,100.000000,,,,,,,,,,,,,,,,,,,,,,,,,,,,,,,,,,,,,,,,,,,,,,,,,,,,,,,,,,,,,,,,,,,,,,,,,,,,,,,,,,,,,,
1676060245.123709,1676060245.124389,107.000000,0.000000,4281.410156,4313.589844,4295.512695,4307.179688,4298.077148,4281.922852,4298.846191,4286.922852,4302.051270,4278.461426,4427.692383,4461.538574,4347.948730,4386.666504,2937.000000,4.000000,85.000000,,,,0.000000,4.000000,4.000000,4.000000,4.000000,4.000000,4.000000,4.000000,4.000000,4.000000,4.000000,4.000000,4.000000,4.000000,4.000000,100.000000,,,,,,,,,,,,,,,,,,,,,,,,,,,,,,,,,,,,,,,,,,,,,,,,,,,,,,,,,,,,,,,,,,,,,,,,,,,,,,,,,,,,,,
1676060245.131518,1676060245.132098,108.000000,0.000000,4276.025879,4303.974121,4295.000000,4297.179688,4297.051270,4280.256348,4296.025879,4291.153809,4302.948730,4275.641113,4436.538574,4458.589844,4345.000000,4388.333496,3144.000000,4.000000,85.000000,,,,0.000000,4.000000,4.000000,4.000000,4.000000,4.000000,4.000000,4.000000,4.000000,4.000000,4.000000,4.000000,4.000000,4.000000,4.000000,100.000000,,,,,,,,,,,,,,,,,,,,,,,,,,,,,,,,,,,,,,,,,,,,,,,,,,,,,,,,,,,,,,,,,,,,,,,,,,,,,,,,,,,,,,
1676060245.139326,1676060245.139906,109.000000,0.000000,4274.871582,4292.179688,4294.487305,4292.051270,4294.871582,4275.769043,4291.153809,4290.512695,4295.000000,4273.974121,4441.410156,4458.205078,4344.102539,4390.000000,3261.000000,4.000000,85.000000,,,,0.000000,4.000000,4.000000,4.000000,4.000000,4.000000,4.000000,4.000000,4.000000,4.000000,4.000000,4.000000,4.000000,4.000000,4.000000,100.000000,,,,,,,,,,,,,,,,,,,,,,,,,,,,,,,,,,,,,,,,,,,,,,,,,,,,,,,,,,,,,,,,,,,,,,,,,,,,,,,,,,,,,,
1676060245.147135,1676060245.147615,110.000000,0.000000,4279.358887,4300.641113,4297.948730,4297.563965,4297.179688,4280.256348,4297.948730,4294.743652,4296.538574,4276.025879,4447.948730,4464.358887,4356.538574,4398.717773,2740.000000,4.000000,85.000000,,,,0.000000,4.000000,4.000000,4.000000,4.000000,4.000000,4.000000,4.000000,4.000000,4.000000,4.000000,4.000000,4.000000,4.000000,4.000000,100.000000,,,,,,,,,,,,,,,,,1.237185,0.811172,1.850125,0.768080,0.684033,3.174513,0.818852,1.423961,0.799495,0.634855,0.555432,0.813095,1.542618,0.729446,0.475172,1.506613,0.593194,1.388908,0.679347,0.427061,0.524597,0.397303,1.135540,0.428434,0.340706,0.843832,0.467335,0.998631,0.427238,0.262522,0.515280,0.332326,0.607278,0.467185,0.364244,0.454002,0.766787,0.953114,0.656099,0.361855,0.434277,0.622890,1.161232,0.557605,0.384496,0.860433,0.828682,1.809152,0.655922,0.607076,7.642273,4.072201,3.065930,1.442396,0.715079,1.468040,1.731229,2.465633,1.006839,0.534107,2.907937,1.318858,1.852260,1.342035,1.065939,1.403224,1.206856,2.160631,1.081489,0.798546
1676060245.154943,1676060245.155423,111.000000,0.000000,4267.820313,4290.769043,4288.333496,4286.153809,4287.307617,4279.230957,4293.461426,4286.025879,4294.615234,4268.717773,4430.128418,4445.641113,4343.717773,4383.717773,2937.000000,4.000000,85.000000,,,,0.000000,4.000000,4.000000,4.000000,4.000000,4.000000,4.000000,4.000000,4.000000,4.000000,4.000000,4.000000,4.000000,4.000000,4.000000,100.000000,,,,,,,,,,,,,,,,,,,,,,,,,,,,,,,,,,,,,,,,,,,,,,,,,,,,,,,,,,,,,,,,,,,,,,,,,,,,,,,,,,,,,,
1676060245.162751,1676060245.163132,112.000000,0.000000,4261.410156,4277.692383,4279.102539,4280.384766,4277.179688,4275.512695,4283.717773,4271.666504,4287.436035,4255.512695,4407.436035,4427.692383,4326.153809,4369.230957,3144.000000,4.000000,85.000000,,,,0.000000,4.000000,4.000000,4.000000,4.000000,4.000000,4.000000,4.000000,4.000000,4.000000,4.000000,4.000000,4.000000,4.000000,4.000000,100.000000,,,,,,,,,,,,,,,,,,,,,,,,,,,,,,,,,,,,,,,,,,,,,,,,,,,,,,,,,,,,,,,,,,,,,,,,,,,,,,,,,,,,,,
1676060245.170560,1676060245.170940,113.000000,0.000000,4278.077148,4297.692383,4296.153809,4298.717773,4291.794922,4283.589844,4295.897461,4285.128418,4299.615234,4261.025879,4425.641113,4449.871582,4347.307617,4390.512695,3261.000000,4.000000,85.000000,,,,0.000000,4.000000,4.000000,4.000000,4.000000,4.000000,4.000000,4.000000,4.000000,4.000000,4.000000,4.000000,4.000000,4.000000,4.000000,100.000000,,,,,,,,,,,,,,,,,,,,,,,,,,,,,,,,,,,,,,,,,,,,,,,,,,,,,,,,,,,,,,,,,,,,,,,,,,,,,,,,,,,,,,
1676060245.178368,1676060245.178649,114.000000,0.000000,4284.102539,4310.512695,4310.897461,4304.358887,4300.256348,4286.410156,4307.436035,4302.692383,4312.563965,4275.897461,4447.820313,4471.153809,4362.436035,4403.846191,2740.000000,4.000000,85.000000,,,,0.000000,4.000000,4.000000,4.000000,4.000000,4.000000,4.000000,4.000000,4.000000,4.000000,4.000000,4.000000,4.000000,4.000000,4.000000,100.000000,,,,,,,,,,,,,,,,,,,,,,,,,,,,,,,,,,,,,,,,,,,,,,,,,,,,,,,,,,,,,,,,,,,,,,,,,,,,,,,,,,,,,,
1676060245.186176,1676060245.186557,115.000000,0.000000,4275.641113,4295.384766,4304.743652,4291.922852,4284.358887,4282.563965,4303.077148,4297.307617,4308.205078,4281.666504,4440.769043,4466.794922,4349.102539,4393.717773,2937.000000,4.000000,85.000000,,,,0.000000,4.000000,4.000000,4.000000,4.000000,4.000000,4.000000,4.000000,4.000000,4.000000,4.000000,4.000000,4.000000,4.000000,4.000000,100.000000,,,,,,,,,,,,,,,,,,,,,,,,,,,,,,,,,,,,,,,,,,,,,,,,,,,,,,,,,,,,,,,,,,,,,,,,,,,,,,,,,,,,,,
1676060245.193985,1676060245.194365,116.000000,0.000000,4280.512695,4290.256348,4300.769043,4293.846191,4285.641113,4291.410156,4302.436035,4289.871582,4302.692383,4281.922852,4434.743652,4462.307617,4344.102539,4393.205078,3144.000000,4.000000,85.000000,,,,0.000000,4.000000,4.000000,4.000000,4.000000,4.000000,4.000000,4.000000,4.000000,4.000000,4.000000,4.000000,4.000000,4.000000,4.000000,100.000000,,,,,,,,,,,,,,,,,,,,,,,,,,,,,,,,,,,,,,,,,,,,,,,,,,,,,,,,,,,,,,,,,,,,,,,,,,,,,,,,,,,,,,
1676060245.201793,1676060245.202274,117.000000,0.000000,4282.820313,4300.641113,4300.384766,4302.307617,4306.410156,4294.358887,4303.333496,4292.436035,4303.589844,4273.077148,4442.948730,4457.179688,4346.666504,4392.307617,3261.000000,4.000000,85.000000,,,,0.000000,4.000000,4.000000,4.000000,4.000000,4.000000,4.000000,4.000000,4.000000,4.000000,4.000000,4.000000,4.000000,4.000000,4.000000,100.000000,,,,,,,,,,,,,,,,,,,,,,,,,,,,,,,,,,,,,,,,,,,,,,,,,,,,,,,,,,,,,,,,,,,,,,,,,,,,,,,,,,,,,,
1676060245.209602,1676060245.210082,118.000000,0.000000,4265.128418,4293.589844,4287.436035,4288.205078,4303.589844,4279.743652,4291.794922,4283.333496,4294.743652,4261.794922,4438.717773,4441.922852,4334.743652,4373.205078,2740.000000,4.000000,85.000000,,,,0.000000,4.000000,4.000000,4.000000,4.000000,4.000000,4.000000,4.000000,4.000000,4.000000,4.000000,4.000000,4.000000,4.000000,4.000000,100.000000,,,,,,,,,,,,,,,,,,,,,,,,,,,,,,,,,,,,,,,,,,,,,,,,,,,,,,,,,,,,,,,,,,,,,,,,,,,,,,,,,,,,,,
1676060245.217410,1676060245.217990,119.000000,0.000000,4259.102539,4284.358887,4281.922852,4279.230957,4291.922852,4280.512695,4288.077148,4274.102539,4291.153809,4267.820313,4440.384766,4437.436035,4329.743652,4368.461426,2937.000000,4.000000,85.000000,,,,0.000000,4.000000,4.000000,4.000000,4.000000,4.000000,4.000000,4.000000,4.000000,4.000000,4.000000,4.000000,4.000000,4.000000,4.000000,100.000000,,,,,,,,,,,,,,,,,,,,,,,,,,,,,,,,,,,,,,,,,,,,,,,,,,,,,,,,,,,,,,,,,,,,,,,,,,,,,,,,,,,,,,
1676060245.225218,1676060245.225799,120.000000,0.000000,4274.487305,4298.846191,4297.692383,4299.102539,4301.153809,4290.384766,4298.717773,4290.769043,4310.128418,4282.051270,4475.256348,4453.205078,4347.307617,4386.922852,3144.000000,4.000000,85.000000,,,,0.000000,4.000000,4.000000,4.000000,4.000000,4.000000,4.000000,4.000000,4.000000,4.000000,4.000000,4.000000,4.000000,4.000000,4.000000,100.000000,,,,,,,,,,,,,,,,,,,,,,,,,,,,,,,,,,,,,,,,,,,,,,,,,,,,,,,,,,,,,,,,,,,,,,,,,,,,,,,,,,,,,,
1676060245.233027,1676060245.233707,121.000000,0.000000,4284.358887,4315.897461,4312.692383,4316.282227,4313.974121,4286.794922,4302.179688,4308.077148,4319.743652,4281.666504,4520.256348,4468.461426,4364.487305,4401.410156,3261.000000,4.000000,85.000000,,,,0.000000,4.000000,4.000000,4.000000,4.000000,4.000000,4.000000,4.000000,4.000000,4.000000,4.000000,4.000000,4.000000,4.000000,4.000000,100.000000,,,,,,,,,,,,,,,,,,,,,,,,,,,,,,,,,,,,,,,,,,,,,,,,,,,,,,,,,,,,,,,,,,,,,,,,,,,,,,,,,,,,,,
1676060245.240835,1676060245.241516,122.000000,0.000000,4282.563965,4309.358887,4310.769043,4307.692383,4311.922852,4284.230957,4296.922852,4301.025879,4311.153809,4273.589844,4542.179688,4468.589844,4363.461426,4401.282227,2740.000000,4.000000,85.000000,,,,0.000000,4.000000,4.000000,4.000000,4.000000,4.000000,4.000000,4.000000,4.000000,4.000000,4.000000,4.000000,4.000000,4.000000,4.000000,100.000000,,,,,,,,,,,,,,,,,,,,,,,,,,,,,,,,,,,,,,,,,,,,,,,,,,,,,,,,,,,,,,,,,,,,,,,,,,,,,,,,,,,,,,
1676060245.248644,1676060245.249424,123.000000,0.000000,4279.102539,4288.846191,4300.512695,4292.179688,4297.692383,4285.641113,4295.641113,4290.384766,4305.256348,4275.000000,4542.051270,4458.846191,4347.307617,4391.153809,2937.000000,4.000000,85.000000,,,,0.000000,4.000000,4.000000,4.000000,4.000000,4.000000,4.000000,4.000000,4.000000,4.000000,4.000000,4.000000,4.000000,4.000000,4.000000,100.000000,,,,,,,,,,,,,,,,,,,,,,,,,,,,,,,,,,,,,,,,,,,,,,,,,,,,,,,,,,,,,,,,,,,,,,,,,,,,,,,,,,,,,,
1676060245.256452,1676060245.257232,124.000000,0.000000,4276.025879,4279.615234,4297.051270,4287.179688,4288.461426,4281.538574,4294.230957,4290.769043,4302.307617,4276.922852,4548.461426,4454.358887,4336.538574,4384.871582,3144.000000,4.000000,85.000000,,,,0.000000,4.000000,4.000000,4.000000,4.000000,4.000000,4.000000,4.000000,4.000000,4.000000,4.000000,4.000000,4.000000,4.000000,4.000000,100.000000,,,,,,,,,,,,,,,,,,,,,,,,,,,,,,,,,,,,,,,,,,,,,,,,,,,,,,,,,,,,,,,,,,,,,,,,,,,,,,,,,,,,,,
1676060245.264260,1676060245.264941,125.000000,0.000000,4277.436035,4289.487305,4304.487305,4292.820313,4300.897461,4282.179688,4292.436035,4292.948730,4298.461426,4277.436035,4566.410156,4462.051270,4343.974121,4395.256348,3261.000000,4.000000,85.000000,,,,0.000000,4.000000,4.000000,4.000000,4.000000,4.000000,4.000000,4.000000,4.000000,4.000000,4.000000,4.000000,4.000000,4.000000,4.000000,100.000000,,,,,,,,,,,,,,,,,,,,,,,,,,,,,,,,,,,,,,,,,,,,,,,,,,,,,,,,,,,,,,,,,,,,,,,,,,,,,,,,,,,,,,
1676060245.272069,1676060245.272749,126.000000,0.000000,4290.897461,4310.384766,4320.769043,4309.230957,4319.487305,4294.358887,4303.974121,4301.153809,4310.128418,4289.358887,4580.641113,4477.948730,4361.025879,4416.666504,2740.000000,4.000000,85.000000,,,,0.000000,4.000000,4.000000,4.000000,4.000000,4.000000,4.000000,4.000000,4.000000,4.000000,4.000000,4.000000,4.000000,4.000000,4.000000,100.000000,,,,,,,,,,,,,,,,,1.251087,0.889114,1.927642,0.852142,0.692008,2.272646,0.746671,1.437934,0.718425,0.593013,0.509506,0.842122,1.563967,0.754355,0.506336,1.089394,0.666877,1.368501,0.647397,0.438383,0.531976,0.386072,1.108153,0.366381,0.336542,0.533961,0.346271,0.840900,0.356704,0.249225,0.415788,0.287332,0.558658,0.474457,0.384314,0.505685,0.856430,0.967481,0.664741,0.406394,0.479895,0.782715,1.245637,0.573667,0.399798,0.886007,0.998227,1.794381,0.756926,0.651223,7.450989,4.472338,3.023116,1.483714,0.767994,1.178107,1.842523,2.398176,1.101387,0.600583,2.109990,1.332225,1.951091,1.357493,1.097753,1.254388,1.354500,2.119876,1.082832,0.871126
1676060245.279877,1676060245.280458,127.000000,0.000000,4294.615234,4310.641113,4317.820313,4311.282227,4318.205078,4297.563965,4309.743652,4304.487305,4318.333496,4287.692383,4567.051270,4475.384766,4357.820313,4414.230957,85.000000,4.000000,85.000000,,,,0.000000,4.000000,4.000000,4.000000,4.000000,4.000000,4.000000,4.000000,4.000000,4.000000,4.000000,4.000000,4.000000,4.000000,4.000000,100.000000,,,,,,,,,,,,,,,,,,,,,,,,,,,,,,,,,,,,,,,,,,,,,,,,,,,,,,,,,,,,,,,,,,,,,,,,,,,,,,,,,,,,,,
1676060245.287686,1676060245.288266,0.000000,0.000000,4270.000000,4283.846191,4287.820313,4285.641113,4299.487305,4284.230957,4291.922852,4284.871582,4298.717773,4261.538574,4528.333496,4443.717773,4332.307617,4383.717773,2523.000000,4.000000,85.000000,,,,0.000000,4.000000,4.000000,4.000000,4.000000,4.000000,4.000000,4.000000,4.000000,4.000000,4.000000,4.000000,4.000000,4.000000,4.000000,100.000000,,,,,,,,,,,,,,,,,,,,,,,,,,,,,,,,,,,,,,,,,,,,,,,,,,,,,,,,,,,,,,,,,,,,,,,,,,,,,,,,,,,,,,
1676060245.295494,1676060245.295975,1.000000,0.000000,4256.410156,4278.205078,4278.589844,4275.000000,4295.897461,4276.794922,4286.025879,4275.769043,4289.871582,4260.512695,4511.410156,4430.641113,4324.358887,4371.410156,2471.000000,4.000000,85.000000,,,,0.000000,4.000000,4.000000,4.000000,4.000000,4.000000,4.000000,4.000000,4.000000,4.000000,4.000000,4.000000,4.000000,4.000000,4.000000,100.000000,,,,,,,,,,,,,,,,,,,,,,,,,,,,,,,,,,,,,,,,,,,,,,,,,,,,,,,,,,,,,,,,,,,,,,,,,,,,,,,,,,,,,,
1676060245.303302,1676060245.303783,2.000000,0.000000,4271.282227,4301.666504,4300.769043,4294.871582,4306.282227,4285.641113,4300.512695,4296.153809,4304.615234,4281.922852,4521.794922,4454.871582,4338.461426,4389.358887,2404.000000,4.000000,85.000000,,,,0.000000,4.000000,4.000000,4.000000,4.000000,4.000000,4.000000,4.000000,4.000000,4.000000,4.000000,4.000000,4.000000,4.000000,4.000000,100.000000,,,,,,,,,,,,,,,,,,,,,,,,,,,,,,,,,,,,,,,,,,,,,,,,,,,,,,,,,,,,,,,,,,,,,,,,,,,,,,,,,,,,,,
1676060245.311111,1676060245.311492,3.000000,0.000000,4285.512695,4313.333496,4317.436035,4309.615234,4305.769043,4296.025879,4309.358887,4310.000000,4314.358887,4282.307617,4528.589844,4475.769043,4351.153809,4409.102539,2459.000000,4.000000,85.000000,,,,0.000000,4.000000,4.000000,4.000000,4.000000,4.000000,4.000000,4.000000,4.000000,4.000000,4.000000,4.000000,4.000000,4.000000,4.000000,100.000000,,,,,,,,,,,,,,,,,,,,,,,,,,,,,,,,,,,,,,,,,,,,,,,,,,,,,,,,,,,,,,,,,,,,,,,,,,,,,,,,,,,,,,
1676060245.318919,1676060245.319300,4.000000,0.000000,4290.128418,4313.077148,4318.717773,4308.461426,4299.102539,4291.794922,4307.307617,4303.589844,4312.436035,4277.179688,4525.384766,4477.820313,4354.871582,4416.794922,2433.000000,4.000000,85.000000,,,,0.000000,4.000000,4.000000,4.000000,4.000000,4.000000,4.000000,4.000000,4.000000,4.000000,4.000000,4.000000,4.000000,4.000000,4.000000,100.000000,,,,,,,,,,,,,,,,,,,,,,,,,,,,,,,,,,,,,,,,,,,,,,,,,,,,,,,,,,,,,,,,,,,,,,,,,,,,,,,,,,,,,,
1676060245.326728,1676060245.327009,5.000000,0.000000,4291.282227,4328.589844,4317.692383,4308.461426,4295.897461,4281.153809,4301.538574,4297.307617,4306.153809,4284.230957,4515.897461,4474.743652,4349.102539,4414.615234,2379.000000,4.000000,85.000000,,,,0.000000,4.000000,4.000000,4.000000,4.000000,4.000000,4.000000,4.000000,4.000000,4.000000,4.000000,4.000000,4.000000,4.000000,4.000000,100.000000,,,,,,,,,,,,,,,,,,,,,,,,,,,,,,,,,,,,,,,,,,,,,,,,,,,,,,,,,,,,,,,,,,,,,,,,,,,,,,,,,,,,,,
1676060245.334536,1676060245.334917,6.000000,0.000000,4287.563965,4339.230957,4317.179688,4316.410156,4297.179688,4277.820313,4296.153809,4293.205078,4298.205078,4277.563965,4492.948730,4466.282227,4334.487305,4404.615234,2231.000000,4.000000,85.000000,,,,0.000000,4.000000,4.000000,4.000000,4.000000,4.000000,4.000000,4.000000,4.000000,4.000000,4.000000,4.000000,4.000000,4.000000,4.000000,100.000000,,,,,,,,,,,,,,,,,,,,,,,,,,,,,,,,,,,,,,,,,,,,,,,,,,,,,,,,,,,,,,,,,,,,,,,,,,,,,,,,,,,,,,
1676060245.342344,1676060245.342726,7.000000,0.000000,4279.615234,4327.436035,4306.153809,4316.153809,4298.077148,4281.025879,4292.948730,4278.461426,4281.794922,4243.717773,4458.717773,4442.820313,4308.333496,4384.871582,2227.000000,4.000000,85.000000,,,,0.000000,4.000000,4.000000,4.000000,4.000000,4.000000,4.000000,4.000000,4.000000,4.000000,4.000000,4.000000,4.000000,4.000000,4.000000,100.000000,,,,,,,,,,,,,,,,,,,,,,,,,,,,,,,,,,,,,,,,,,,,,,,,,,,,,,,,,,,,,,,,,,,,,,,,,,,,,,,,,,,,,,
1676060245.350153,1676060245.350634,8.000000,0.000000,4275.769043,4330.000000,4296.410156,4311.794922,4299.743652,4282.051270,4293.077148,4269.743652,4273.205078,4232.948730,4440.512695,4430.384766,4294.230957,4371.666504,2271.000000,4.000000,85.000000,,,,0.000000,4.000000,4.000000,4.000000,4.000000,4.000000,4.000000,4.000000,4.000000,4.000000,4.000000,4.000000,4.000000,4.000000,4.000000,100.000000,,,,,,,,,,,,,,,,,,,,,,,,,,,,,,,,,,,,,,,,,,,,,,,,,,,,,,,,,,,,,,,,,,,,,,,,,,,,,,,,,,,,,,
1676060245.357961,1676060245.358443,9.000000,0.000000,4278.461426,4349.358887,4301.410156,4322.179688,4302.563965,4281.410156,4293.974121,4285.128418,4291.153809,4267.307617,4448.205078,4449.358887,4307.692383,4381.922852,2244.000000,4.000000,85.000000,,,,0.000000,4.000000,4.000000,4.000000,4.000000,4.000000,4.000000,4.000000,4.000000,4.000000,4.000000,4.000000,4.000000,4.000000,4.000000,100.000000,,,,,,,,,,,,,,,,,,,,,,,,,,,,,,,,,,,,,,,,,,,,,,,,,,,,,,,,,,,,,,,,,,,,,,,,,,,,,,,,,,,,,,
1676060245.365769,1676060245.366351,10.000000,0.000000,4285.769043,4354.615234,4313.205078,4335.769043,4307.307617,4281.410156,4293.717773,4299.358887,4312.179688,4292.820313,4462.051270,4471.153809,4324.871582,4399.230957,2742.000000,4.000000,85.000000,,,,0.000000,4.000000,4.000000,4.000000,4.000000,4.000000,4.000000,4.000000,4.000000,4.000000,4.000000,4.000000,4.000000,4.000000,4.000000,100.000000,,,,,,,,,,,,,,,,,,,,,,,,,,,,,,,,,,,,,,,,,,,,,,,,,,,,,,,,,,,,,,,,,,,,,,,,,,,,,,,,,,,,,,
1676060245.373578,1676060245.374159,11.000000,0.000000,4291.538574,4350.769043,4316.282227,4337.948730,4306.538574,4280.512695,4296.282227,4297.820313,4310.000000,4277.307617,4465.128418,4476.153809,4331.282227,4403.589844,2920.000000,4.000000,85.000000,,,,0.000000,4.000000,4.000000,4.000000,4.000000,4.000000,4.000000,4.000000,4.000000,4.000000,4.000000,4.000000,4.000000,4.000000,4.000000,100.000000,,,,,,,,,,,,,,,,,,,,,,,,,,,,,,,,,,,,,,,,,,,,,,,,,,,,,,,,,,,,,,,,,,,,,,,,,,,,,,,,,,,,,,
1676060245.381386,1676060245.382068,12.000000,0.000000,4285.512695,4349.102539,4306.794922,4334.102539,4296.153809,4279.743652,4293.461426,4292.051270,4297.307617,4262.692383,4452.179688,4470.384766,4325.384766,4396.153809,3126.000000,4.000000,85.000000,,,,0.000000,4.000000,4.000000,4.000000,4.000000,4.000000,4.000000,4.000000,4.000000,4.000000,4.000000,4.000000,4.000000,4.000000,4.000000,100.000000,,,,,,,,,,,,,,,,,,,,,,,,,,,,,,,,,,,,,,,,,,,,,,,,,,,,,,,,,,,,,,,,,,,,,,,,,,,,,,,,,,,,,,
1676060245.389194,1676060245.389876,13.000000,0.000000,4269.615234,4334.871582,4294.230957,4329.615234,4294.358887,4275.769043,4281.666504,4282.692383,4292.051270,4266.794922,4427.436035,4455.897461,4305.897461,4378.974121,3241.000000,4.000000,85.000000,,,,0.000000,4.000000,4.000000,4.000000,4.000000,4.000000,4.000000,4.000000,4.000000,4.000000,4.000000,4.000000,4.000000,4.000000,4.000000,100.000000,,,,,,,,,,,,,,,,,,,,,,,,,,,,,,,,,,,,,,,,,,,,,,,,,,,,,,,,,,,,,,,,,,,,,,,,,,,,,,,,,,,,,,
1676060245.397003,1676060245.397785,14.000000,0.000000,4260.641113,4323.205078,4289.743652,4326.922852,4296.410156,4271.922852,4283.461426,4279.230957,4292.692383,4259.615234,4418.077148,4448.846191,4300.641113,4370.897461,2742.000000,4.000000,85.000000,,,,0.000000,4.000000,4.000000,4.000000,4.000000,4.000000,4.000000,4.000000,4.000000,4.000000,4.000000,4.000000,4.000000,4.000000,4.000000,100.000000,1.000000,100.000000,4.000000,4.000000,4.000000,4.000000,4.000000,4.000000,4.000000,4.000000,4.000000,4.000000,4.000000,4.000000,4.000000,4.000000,1.407804,1.030653,1.951293,0.938841,0.682044,1.633737,0.786389,1.466482,0.688418,0.570065,0.545181,0.946617,1.610609,0.810486,0.552126,0.911484,0.765940,1.350524,0.674388,0.464134,0.513648,0.387885,1.043208,0.319102,0.330373,0.467939,0.339780,0.756678,0.292187,0.237025,0.409405,0.270125,0.525669,0.472456,0.414014,0.533814,0.917976,0.972482,0.662589,0.487845,0.558444,0.921652,1.308426,0.581408,0.428949,0.935733,1.144686,1.751843,0.851689,0.723352,7.300643,4.490193,2.787683,1.437361,0.842006,1.076437,2.027165,2.281060,1.164574,0.688941,1.464304,1.363540,1.930580,1.280952,1.103718,1.188014,1.510703,2.048463,1.043286,0.945170
1676060245.404811,1676060245.405593,15.000000,0.000000,4272.051270,4336.666504,4298.717773,4338.205078,4291.538574,4276.153809,4302.179688,4292.820313,4297.948730,4255.000000,4435.897461,4466.153809,4321.666504,4383.974121,2920.000000,4.000000,85.000000,,,,0.000000,4.000000,4.000000,4.000000,4.000000,4.000000,4.000000,4.000000,4.000000,4.000000,4.000000,4.000000,4.000000,4.000000,4.000000,100.000000,,,,,,,,,,,,,,,,,,,,,,,,,,,,,,,,,,,,,,,,,,,,,,,,,,,,,,,,,,,,,,,,,,,,,,,,,,,,,,,,,,,,,,
1676060245.412620,1676060245.413501,16.000000,0.000000,4282.563965,4347.307617,4301.410156,4347.563965,4292.692383,4279.487305,4303.717773,4295.512695,4294.487305,4260.256348,4439.487305,4479.102539,4325.128418,4387.692383,0.000000,4.000000,85.000000,,,,0.000000,4.000000,4.000000,4.000000,4.000000,4.000000,4.000000,4.000000,4.000000,4.000000,4.000000,4.000000,4.000000,4.000000,4.000000,100.000000,,,,,,,,,,,,,,,,,,,,,,,,,,,,,,,,,,,,,,,,,,,,,,,,,,,,,,,,,,,,,,,,,,,,,,,,,,,,,,,,,,,,,,
1676060245.420428,1676060245.421310,17.000000,0.000000,4276.282227,4338.333496,4297.179688,4343.589844,4300.000000,4280.897461,4291.794922,4281.538574,4282.563965,4261.153809,4424.487305,4476.538574,4312.307617,4382.051270,0.000000,4.000000,85.000000,,,,0.000000,4.000000,4.000000,4.000000,4.000000,4.000000,4.000000,4.000000,4.000000,4.000000,4.000000,4.000000,4.000000,4.000000,4.000000,100.000000,,,,,,,,,,,,,,,,,,,,,,,,,,,,,,,,,,,,,,,,,,,,,,,,,,,,,,,,,,,,,,,,,,,,,,,,,,,,,,,,,,,,,,
1676060245.428236,1676060245.429218,18.000000,0.000000,4275.897461,4339.102539,4304.743652,4345.000000,4302.436035,4278.205078,4293.333496,4286.025879,4283.846191,4263.974121,4427.692383,4485.897461,4316.922852,4392.307617,0.000000,4.000000,85.000000,,,,0.000000,4.000000,4.000000,4.000000,4.000000,4.000000,4.000000,4.000000,4.000000,4.000000,4.000000,4.000000,4.000000,4.000000,4.000000,100.000000,,,,,,,,,,,,,,,,,,,,,,,,,,,,,,,,,,,,,,,,,,,,,,,,,,,,,,,,,,,,,,,,,,,,,,,,,,,,,,,,,,,,,,
1676060245.436045,1676060245.437027,19.000000,0.000000,4285.128418,4344.743652,4309.487305,4346.794922,4296.538574,4267.051270,4294.230957,4294.230957,4285.897461,4260.641113,4431.025879,4490.769043,4320.256348,4392.051270,0.000000,4.000000,85.000000,,,,0.000000,4.000000,4.000000,4.000000,4.000000,4.000000,4.000000,4.000000,4.000000,4.000000,4.000000,4.000000,4.000000,4.000000,4.000000,100.000000,,,,,,,,,,,,,,,,,,,,,,,,,,,,,,,,,,,,,,,,,,,,,,,,,,,,,,,,,,,,,,,,,,,,,,,,,,,,,,,,,,,,,,
1676060245.443853,1676060245.444735,20.000000,0.000000,4281.282227,4333.205078,4300.256348,4338.717773,4293.589844,4267.692383,4291.282227,4286.410156,4282.436035,4243.205078,4415.000000,4480.128418,4308.846191,4378.333496,0.000000,4.000000,85.000000,,,,0.000000,4.000000,4.000000,4.000000,4.000000,4.000000,4.000000,4.000000,4.000000,4.000000,4.000000,4.000000,4.000000,4.000000,4.000000,100.000000,,,,,,,,,,,,,,,,,,,,,,,,,,,,,,,,,,,,,,,,,,,,,,,,,,,,,,,,,,,,,,,,,,,,,,,,,,,,,,,,,,,,,,
1676060245.451661,1676060245.452544,21.000000,0.000000,4265.897461,4320.512695,4283.461426,4327.692383,4294.743652,4281.794922,4289.615234,4280.769043,4284.615234,4236.666504,4396.922852,4467.692383,4298.205078,4368.717773,0.000000,4.000000,85.000000,,,,0.000000,4.000000,4.000000,4.000000,4.000000,4.000000,4.000000,4.000000,4.000000,4.000000,4.000000,4.000000,4.000000,4.000000,4.000000,100.000000,,,,,,,,,,,,,,,,,,,,,,,,,,,,,,,,,,,,,,,,,,,,,,,,,,,,,,,,,,,,,,,,,,,,,,,,,,,,,,,,,,,,,,
1676060245.459470,1676060245.460252,22.000000,0.000000,4257.179688,4322.692383,4275.512695,4324.871582,4290.256348,4282.179688,4282.563965,4284.743652,4292.820313,4255.641113,4391.410156,4458.461426,4295.512695,4361.666504,0.000000,4.000000,85.000000,,,,0.000000,4.000000,4.000000,4.000000,4.000000,4.000000,4.000000,4.000000,4.000000,4.000000,4.000000,4.000000,4.000000,4.000000,4.000000,100.000000,,,,,,,,,,,,,,,,,,,,,,,,,,,,,,,,,,,,,,,,,,,,,,,,,,,,,,,,,,,,,,,,,,,,,,,,,,,,,,,,,,,,,,
1676060245.467278,1676060245.468061,23.000000,0.000000,4262.051270,4327.948730,4287.436035,4333.974121,4290.256348,4275.256348,4285.384766,4294.743652,4304.871582,4269.615234,4405.512695,4463.333496,4308.717773,4370.128418,0.000000,4.000000,85.000000,,,,0.000000,4.000000,4.000000,4.000000,4.000000,4.000000,4.000000,4.000000,4.000000,4.000000,4.000000,4.000000,4.000000,4.000000,4.000000,100.000000,,,,,,,,,,,,,,,,,,,,,,,,,,,,,,,,,,,,,,,,,,,,,,,,,,,,,,,,,,,,,,,,,,,,,,,,,,,,,,,,,,,,,,
1676060245.475087,1676060245.475769,24.000000,0.000000,4266.410156,4326.025879,4296.794922,4338.461426,4296.153809,4277.051270,4295.641113,4294.358887,4308.333496,4265.769043,4417.948730,4474.102539,4323.205078,4380.897461,0.000000,4.000000,85.000000,,,,0.000000,4.000000,4.000000,4.000000,4.000000,4.000000,4.000000,4.000000,4.000000,4.000000,4.000000,4.000000,4.000000,4.000000,4.000000,100.000000,,,,,,,,,,,,,,,,,,,,,,,,,,,,,,,,,,,,,,,,,,,,,,,,,,,,,,,,,,,,,,,,,,,,,,,,,,,,,,,,,,,,,,
1676060245.482895,1676060245.483578,25.000000,0.000000,4265.384766,4324.487305,4290.769043,4332.692383,4296.922852,4281.282227,4293.974121,4281.282227,4297.563965,4264.743652,4409.230957,4474.487305,4318.717773,4375.897461,0.000000,4.000000,85.000000,,,,0.000000,4.000000,4.000000,4.000000,4.000000,4.000000,4.000000,4.000000,4.000000,4.000000,4.000000,4.000000,4.000000,4.000000,4.000000,100.000000,,,,,,,,,,,,,,,,,,,,,,,,,,,,,,,,,,,,,,,,,,,,,,,,,,,,,,,,,,,,,,,,,,,,,,,,,,,,,,,,,,,,,,
1676060245.490703,1676060245.491286,26.000000,0.000000,4269.487305,4326.538574,4300.897461,4337.051270,4297.307617,4280.000000,4291.922852,4283.205078,4289.230957,4263.077148,4407.179688,4479.743652,4316.666504,4381.538574,0.000000,4.000000,85.000000,,,,0.000000,4.000000,4.000000,4.000000,4.000000,4.000000,4.000000,4.000000,4.000000,4.000000,4.000000,4.000000,4.000000,4.000000,4.000000,100.000000,,,,,,,,,,,,,,,,,,,,,,,,,,,,,,,,,,,,,,,,,,,,,,,,,,,,,,,,,,,,,,,,,,,,,,,,,,,,,,,,,,,,,,
1676060245.498512,1676060245.499095,27.000000,0.000000,4279.230957,4325.512695,4322.820313,4349.102539,4300.000000,4272.820313,4300.641113,4300.512695,4295.769043,4257.179688,4425.769043,4498.846191,4330.512695,4397.820313,0.000000,4.000000,85.000000,,,,0.000000,4.000000,4.000000,4.000000,4.000000,4.000000,4.000000,4.000000,4.000000,4.000000,4.000000,4.000000,4.000000,4.000000,4.000000,100.000000,,,,,,,,,,,,,,,,,,,,,,,,,,,,,,,,,,,,,,,,,,,,,,,,,,,,,,,,,,,,,,,,,,,,,,,,,,,,,,,,,,,,,,
1676060245.506320,1676060245.506803,28.000000,0.000000,4291.282227,4330.000000,4327.179688,4354.358887,4299.743652,4270.769043,4308.846191,4311.794922,4308.077148,4270.512695,4438.077148,4515.769043,4340.769043,4404.871582,0.000000,4.000000,85.000000,,,,0.000000,4.000000,4.000000,4.000000,4.000000,4.000000,4.000000,4.000000,4.000000,4.000000,4.000000,4.000000,4.000000,4.000000,4.000000,100.000000,,,,,,,,,,,,,,,,,,,,,,,,,,,,,,,,,,,,,,,,,,,,,,,,,,,,,,,,,,,,,,,,,,,,,,,,,,,,,,,,,,,,,,
1676060245.514129,1676060245.514612,29.000000,0.000000,4286.025879,4328.205078,4314.743652,4344.487305,4295.769043,4279.358887,4301.025879,4303.846191,4301.538574,4278.333496,4421.538574,4506.025879,4328.205078,4395.128418,0.000000,4.000000,85.000000,,,,0.000000,4.000000,4.000000,4.000000,4.000000,4.000000,4.000000,4.000000,4.000000,4.000000,4.000000,4.000000,4.000000,4.000000,4.000000,100.000000,,,,,,,,,,,,,,,,,,,,,,,,,,,,,,,,,,,,,,,,,,,,,,,,,,,,,,,,,,,,,,,,,,,,,,,,,,,,,,,,,,,,,,
1676060245.521937,1676060245.522320,30.000000,0.000000,4262.820313,4306.282227,4297.051270,4325.641113,4293.589844,4281.282227,4283.717773,4284.230957,4276.538574,4253.717773,4393.077148,4473.974121,4305.769043,4374.230957,0.000000,4.000000,85.000000,,,,0.000000,4.000000,4.000000,4.000000,4.000000,4.000000,4.000000,4.000000,4.000000,4.000000,4.000000,4.000000,4.000000,4.000000,4.000000,100.000000,,,,,,,,,,,,,,,,,1.609707,1.200367,1.922840,0.993418,0.661786,1.315718,0.900712,1.498188,0.689923,0.583805,0.617576,1.081487,1.678792,0.875050,0.612070,0.924290,0.853123,1.337711,0.726118,0.506925,0.424550,0.392443,0.934359,0.286213,0.331175,0.487566,0.384551,0.681798,0.241031,0.225689,0.398664,0.255548,0.521754,0.465455,0.449974,0.541845,0.903707,0.982548,0.664244,0.597699,0.613803,0.985432,1.346128,0.594878,0.467026,0.973370,1.212000,1.706514,0.937950,0.803455,7.128762,4.225722,2.427330,1.355298,0.929930,1.104126,2.191692,2.150947,1.205093,0.790626,1.057969,1.381147,1.795188,1.164540,1.091129,1.189532,1.613136,1.966221,1.001058,1.006429
1676060245.529745,1676060245.530129,31.000000,0.000000,4266.666504,4307.179688,4293.333496,4328.717773,4293.333496,4277.051270,4285.000000,4282.820313,4280.769043,4253.974121,4394.230957,4468.846191,4308.974121,4373.974121,0.000000,4.000000,85.000000,,,,0.000000,4.000000,4.000000,4.000000,4.000000,4.000000,4.000000,4.000000,4.000000,4.000000,4.000000,4.000000,4.000000,4.000000,4.000000,100.000000,,,,,,,,,,,,,,,,,,,,,,,,,,,,,,,,,,,,,,,,,,,,,,,,,,,,,,,,,,,,,,,,,,,,,,,,,,,,,,,,,,,,,,
1676060245.537554,1676060245.537837,32.000000,0.000000,4290.897461,4339.487305,4303.461426,4347.820313,4299.871582,4280.512695,4305.000000,4303.077148,4316.153809,4283.974121,4419.615234,4492.820313,4334.358887,4399.102539,0.000000,4.000000,85.000000,,,,0.000000,4.000000,4.000000,4.000000,4.000000,4.000000,4.000000,4.000000,4.000000,4.000000,4.000000,4.000000,4.000000,4.000000,4.000000,100.000000,,,,,,,,,,,,,,,,,,,,,,,,,,,,,,,,,,,,,,,,,,,,,,,,,,,,,,,,,,,,,,,,,,,,,,,,,,,,,,,,,,,,,,
1676060245.545362,1676060245.545646,33.000000,0.000000,4291.922852,4343.077148,4303.333496,4347.179688,4310.000000,4282.820313,4302.307617,4307.179688,4318.333496,4277.820313,4420.000000,4489.487305,4339.871582,4403.461426,0.000000,4.000000,85.000000,,,,0.000000,4.000000,4.000000,4.000000,4.000000,4.000000,4.000000,4.000000,4.000000,4.000000,4.000000,4.000000,4.000000,4.000000,4.000000,100.000000,,,,,,,,,,,,,,,,,,,,,,,,,,,,,,,,,,,,,,,,,,,,,,,,,,,,,,,,,,,,,,,,,,,,,,,,,,,,,,,,,,,,,,
1676060245.553171,1676060245.553354,34.000000,0.000000,4276.025879,4320.512695,4291.410156,4335.512695,4306.410156,4279.615234,4282.307617,4289.358887,4296.794922,4256.538574,4398.974121,4463.974121,4325.000000,4386.282227,0.000000,4.000000,85.000000,,,,0.000000,4.000000,4.000000,4.000000,4.000000,4.000000,4.000000,4.000000,4.000000,4.000000,4.000000,4.000000,4.000000,4.000000,4.000000,100.000000,,,,,,,,,,,,,,,,,,,,,,,,,,,,,,,,,,,,,,,,,,,,,,,,,,,,,,,,,,,,,,,,,,,,,,,,,,,,,,,,,,,,,,
1676060245.560979,1676060245.561262,35.000000,0.000000,4271.153809,4322.051270,4286.153809,4335.128418,4300.256348,4279.230957,4283.461426,4280.512695,4291.410156,4263.717773,4394.615234,4460.512695,4320.384766,4381.282227,0.000000,4.000000,85.000000,,,,0.000000,4.000000,4.000000,4.000000,4.000000,4.000000,4.000000,4.000000,4.000000,4.000000,4.000000,4.000000,4.000000,4.000000,4.000000,100.000000,,,,,,,,,,,,,,,,,,,,,,,,,,,,,,,,,,,,,,,,,,,,,,,,,,,,,,,,,,,,,,,,,,,,,,,,,,,,,,,,,,,,,,
1676060245.568787,1676060245.569071,36.000000,0.000000,4268.974121,4331.153809,4282.051270,4332.051270,4298.589844,4276.794922,4289.743652,4276.794922,4284.871582,4265.512695,4390.769043,4462.307617,4313.461426,4376.666504,0.000000,4.000000,85.000000,,,,0.000000,4.000000,4.000000,4.000000,4.000000,4.000000,4.000000,4.000000,4.000000,4.000000,4.000000,4.000000,4.000000,4.000000,4.000000,100.000000,,,,,,,,,,,,,,,,,,,,,,,,,,,,,,,,,,,,,,,,,,,,,,,,,,,,,,,,,,,,,,,,,,,,,,,,,,,,,,,,,,,,,,
1676060245.576596,1676060245.576979,37.000000,0.000000,4262.692383,4315.384766,4276.538574,4322.563965,4289.615234,4272.179688,4282.179688,4276.153809,4280.256348,4257.563965,4381.794922,4457.307617,4305.512695,4367.436035,0.000000,4.000000,85.000000,,,,0.000000,4.000000,4.000000,4.000000,4.000000,4.000000,4.000000,4.000000,4.000000,4.000000,4.000000,4.000000,4.000000,4.000000,4.000000,100.000000,,,,,,,,,,,,,,,,,,,,,,,,,,,,,,,,,,,,,,,,,,,,,,,,,,,,,,,,,,,,,,,,,,,,,,,,,,,,,,,,,,,,,,
1676060245.584404,1676060245.584788,38.000000,0.000000,4262.563965,4304.358887,4285.897461,4325.769043,4288.461426,4273.846191,4283.974121,4287.692383,4292.436035,4262.436035,4395.897461,4466.666504,4319.743652,4374.358887,0.000000,4.000000,85.000000,,,,0.000000,4.000000,4.000000,4.000000,4.000000,4.000000,4.000000,4.000000,4.000000,4.000000,4.000000,4.000000,4.000000,4.000000,4.000000,100.000000,,,,,,,,,,,,,,,,,,,,,,,,,,,,,,,,,,,,,,,,,,,,,,,,,,,,,,,,,,,,,,,,,,,,,,,,,,,,,,,,,,,,,,
1676060245.592213,1676060245.592696,39.000000,0.000000,4272.692383,4322.820313,4306.025879,4338.846191,4307.563965,4280.641113,4304.743652,4303.077148,4300.256348,4265.769043,4418.461426,4489.230957,4338.974121,4391.025879,0.000000,4.000000,85.000000,,,,0.000000,4.000000,4.000000,4.000000,4.000000,4.000000,4.000000,4.000000,4.000000,4.000000,4.000000,4.000000,4.000000,4.000000,4.000000,100.000000,,,,,,,,,,,,,,,,,,,,,,,,,,,,,,,,,,,,,,,,,,,,,,,,,,,,,,,,,,,,,,,,,,,,,,,,,,,,,,,,,,,,,,
1676060245.600021,1676060245.600504,40.000000,0.000000,4292.179688,4339.102539,4321.153809,4346.025879,4318.974121,4283.077148,4314.871582,4311.025879,4299.102539,4268.205078,4421.794922,4504.487305,4340.769043,4400.000000,0.000000,4.000000,85.000000,,,,0.000000,4.000000,4.000000,4.000000,4.000000,4.000000,4.000000,4.000000,4.000000,4.000000,4.000000,4.000000,4.000000,4.000000,4.000000,100.000000,,,,,,,,,,,,,,,,,,,,,,,,,,,,,,,,,,,,,,,,,,,,,,,,,,,,,,,,,,,,,,,,,,,,,,,,,,,,,,,,,,,,,,
1676060245.607829,1676060245.608413,41.000000,0.000000,4297.436035,4329.743652,4317.692383,4338.589844,4308.205078,4279.358887,4300.000000,4301.410156,4291.538574,4269.230957,4410.512695,4496.410156,4334.871582,4397.051270,0.000000,4.000000,85.000000,,,,0.000000,4.000000,4.000000,4.000000,4.000000,4.000000,4.000000,4.000000,4.000000,4.000000,4.000000,4.000000,4.000000,4.000000,4.000000,100.000000,,,,,,,,,,,,,,,,,,,,,,,,,,,,,,,,,,,,,,,,,,,,,,,,,,,,,,,,,,,,,,,,,,,,,,,,,,,,,,,,,,,,,,
1676060245.615638,1676060245.616221,42.000000,0.000000,4286.410156,4322.051270,4314.102539,4333.717773,4307.563965,4278.589844,4295.128418,4295.000000,4284.358887,4267.563965,4413.077148,4492.307617,4336.153809,4400.256348,0.000000,4.000000,85.000000,,,,0.000000,4.000000,4.000000,4.000000,4.000000,4.000000,4.000000,4.000000,4.000000,4.000000,4.000000,4.000000,4.000000,4.000000,4.000000,100.000000,,,,,,,,,,,,,,,,,,,,,,,,,,,,,,,,,,,,,,,,,,,,,,,,,,,,,,,,,,,,,,,,,,,,,,,,,,,,,,,,,,,,,,
1676060245.623446,1676060245.624130,43.000000,0.000000,4282.692383,4323.205078,4317.051270,4336.538574,4312.051270,4280.897461,4303.333496,4299.871582,4284.102539,4263.974121,4417.436035,4496.025879,4334.615234,4405.128418,0.000000,4.000000,85.000000,,,,0.000000,4.000000,4.000000,4.000000,4.000000,4.000000,4.000000,4.000000,4.000000,4.000000,4.000000,4.000000,4.000000,4.000000,4.000000,100.000000,,,,,,,,,,,,,,,,,,,,,,,,,,,,,,,,,,,,,,,,,,,,,,,,,,,,,,,,,,,,,,,,,,,,,,,,,,,,,,,,,,,,,,
1676060245.631254,1676060245.631938,44.000000,0.000000,4277.051270,4312.820313,4301.538574,4325.256348,4300.128418,4275.384766,4294.230957,4290.384766,4280.897461,4255.897461,4394.358887,4478.077148,4318.974121,4387.820313,0.000000,4.000000,85.000000,,,,0.000000,4.000000,4.000000,4.000000,4.000000,4.000000,4.000000,4.000000,4.000000,4.000000,4.000000,4.000000,4.000000,4.000000,4.000000,100.000000,,,,,,,,,,,,,,,,,,,,,,,,,,,,,,,,,,,,,,,,,,,,,,,,,,,,,,,,,,,,,,,,,,,,,,,,,,,,,,,,,,,,,,
1676060245.639063,1676060245.639647,45.000000,0.000000,4277.820313,4317.051270,4293.589844,4320.897461,4299.358887,4277.436035,4292.436035,4292.948730,4292.179688,4266.153809,4394.487305,4479.358887,4328.205078,4385.897461,0.000000,4.000000,85.000000,,,,0.000000,4.000000,4.000000,4.000000,4.000000,4.000000,4.000000,4.000000,4.000000,4.000000,4.000000,4.000000,4.000000,4.000000,4.000000,100.000000,,,,,,,,,,,,,,,,,,,,,,,,,,,,,,,,,,,,,,,,,,,,,,,,,,,,,,,,,,,,,,,,,,,,,,,,,,,,,,,,,,,,,,
1676060245.646871,1676060245.647455,46.000000,0.000000,4291.666504,4332.436035,4311.025879,4335.512695,4313.205078,4290.769043,4309.743652,4319.487305,4321.025879,4287.948730,4428.974121,4511.282227,4358.589844,4413.589844,0.000000,4.000000,85.000000,,,,0.000000,4.000000,4.000000,4.000000,4.000000,4.000000,4.000000,4.000000,4.000000,4.000000,4.000000,4.000000,4.000000,4.000000,4.000000,100.000000,,,,,,,,,,,,,,,,,1.731193,1.346280,1.867400,1.003883,0.641496,1.306209,1.040216,1.508004,0.717839,0.637897,0.660960,1.186440,1.770247,0.945324,0.676558,1.017155,0.891273,1.328363,0.777870,0.565006,0.365746,0.392906,0.795757,0.266932,0.345404,0.485573,0.427208,0.587691,0.207664,0.216896,0.343611,0.236103,0.542771,0.460705,0.483276,0.501049,0.802247,0.998823,0.691234,0.712546,0.609602,0.957923,1.352364,0.630851,0.504461,0.961014,1.189401,1.665795,1.029109,0.872282,7.528304,3.946477,2.090898,1.329352,1.017707,1.152399,2.241035,2.075177,1.272679,0.888139,0.924369,1.359417,1.612104,1.093274,1.069008,1.220584,1.625021,1.909100,1.015789,1.044756
1676060245.654679,1676060245.655164,47.000000,0.000000,4290.897461,4321.794922,4311.922852,4336.538574,4313.461426,4288.205078,4309.743652,4318.461426,4322.051270,4286.538574,4426.025879,4502.820313,4348.846191,4409.871582,0.000000,4.000000,85.000000,,,,0.000000,4.000000,4.000000,4.000000,4.000000,4.000000,4.000000,4.000000,4.000000,4.000000,4.000000,4.000000,4.000000,4.000000,4.000000,100.000000,,,,,,,,,,,,,,,,,,,,,,,,,,,,,,,,,,,,,,,,,,,,,,,,,,,,,,,,,,,,,,,,,,,,,,,,,,,,,,,,,,,,,,
1676060245.662488,1676060245.662972,48.000000,0.000000,4276.794922,4310.384766,4293.974121,4322.948730,4310.128418,4277.563965,4300.384766,4299.871582,4303.717773,4274.487305,4397.563965,4470.128418,4322.436035,4383.077148,0.000000,4.000000,85.000000,,,,0.000000,4.000000,4.000000,4.000000,4.000000,4.000000,4.000000,4.000000,4.000000,4.000000,4.000000,4.000000,4.000000,4.000000,4.000000,100.000000,,,,,,,,,,,,,,,,,,,,,,,,,,,,,,,,,,,,,,,,,,,,,,,,,,,,,,,,,,,,,,,,,,,,,,,,,,,,,,,,,,,,,,
1676060245.670296,1676060245.670681,49.000000,0.000000,4275.512695,4317.307617,4291.666504,4320.897461,4315.256348,4283.974121,4301.282227,4304.871582,4306.025879,4279.102539,4402.563965,4476.922852,4329.230957,4382.307617,0.000000,4.000000,85.000000,,,,0.000000,4.000000,4.000000,4.000000,4.000000,4.000000,4.000000,4.000000,4.000000,4.000000,4.000000,4.000000,4.000000,4.000000,4.000000,100.000000,,,,,,,,,,,,,,,,,,,,,,,,,,,,,,,,,,,,,,,,,,,,,,,,,,,,,,,,,,,,,,,,,,,,,,,,,,,,,,,,,,,,,,
1676060245.678105,1676060245.678489,50.000000,0.000000,4283.974121,4319.102539,4298.974121,4327.692383,4317.436035,4290.256348,4302.692383,4310.384766,4310.897461,4285.256348,4416.025879,4490.769043,4343.974121,4397.051270,0.000000,4.000000,85.000000,,,,0.000000,4.000000,4.000000,4.000000,4.000000,4.000000,4.000000,4.000000,4.000000,4.000000,4.000000,4.000000,4.000000,4.000000,4.000000,100.000000,,,,,,,,,,,,,,,,,,,,,,,,,,,,,,,,,,,,,,,,,,,,,,,,,,,,,,,,,,,,,,,,,,,,,,,,,,,,,,,,,,,,,,
1676060245.685913,1676060245.686198,51.000000,0.000000,4285.128418,4313.333496,4297.563965,4325.512695,4313.717773,4274.230957,4296.282227,4295.641113,4297.051270,4278.461426,4404.358887,4477.948730,4338.077148,4397.948730,0.000000,4.000000,85.000000,,,,0.000000,4.000000,4.000000,4.000000,4.000000,4.000000,4.000000,4.000000,4.000000,4.000000,4.000000,4.000000,4.000000,4.000000,4.000000,100.000000,,,,,,,,,,,,,,,,,,,,,,,,,,,,,,,,,,,,,,,,,,,,,,,,,,,,,,,,,,,,,,,,,,,,,,,,,,,,,,,,,,,,,,
1676060245.693721,1676060245.694006,52.000000,0.000000,4278.974121,4304.743652,4289.487305,4310.897461,4302.692383,4258.717773,4283.717773,4281.153809,4283.846191,4256.794922,4387.307617,4466.025879,4322.436035,4384.871582,0.000000,4.000000,85.000000,,,,0.000000,4.000000,4.000000,4.000000,4.000000,4.000000,4.000000,4.000000,4.000000,4.000000,4.000000,4.000000,4.000000,4.000000,4.000000,100.000000,,,,,,,,,,,,,,,,,,,,,,,,,,,,,,,,,,,,,,,,,,,,,,,,,,,,,,,,,,,,,,,,,,,,,,,,,,,,,,,,,,,,,,
1676060245.701530,1676060245.701715,53.000000,0.000000,4279.358887,4305.512695,4293.077148,4306.282227,4294.615234,4270.512695,4284.358887,4286.538574,4288.077148,4247.436035,4389.102539,4475.256348,4322.436035,4382.563965,0.000000,4.000000,85.000000,,,,0.000000,4.000000,4.000000,4.000000,4.000000,4.000000,4.000000,4.000000,4.000000,4.000000,4.000000,4.000000,4.000000,4.000000,4.000000,100.000000,,,,,,,,,,,,,,,,,,,,,,,,,,,,,,,,,,,,,,,,,,,,,,,,,,,,,,,,,,,,,,,,,,,,,,,,,,,,,,,,,,,,,,
1676060245.709338,1676060245.709523,54.000000,0.000000,4296.025879,4322.307617,4314.871582,4326.025879,4311.153809,4294.615234,4305.256348,4308.589844,4304.743652,4271.922852,4411.538574,4496.794922,4344.871582,4404.487305,0.000000,4.000000,85.000000,,,,0.000000,4.000000,4.000000,4.000000,4.000000,4.000000,4.000000,4.000000,4.000000,4.000000,4.000000,4.000000,4.000000,4.000000,4.000000,100.000000,,,,,,,,,,,,,,,,,,,,,,,,,,,,,,,,,,,,,,,,,,,,,,,,,,,,,,,,,,,,,,,,,,,,,,,,,,,,,,,,,,,,,,
1676060245.717147,1676060245.717232,55.000000,0.000000,4301.025879,4320.128418,4316.410156,4332.948730,4326.538574,4294.871582,4306.794922,4310.000000,4301.538574,4280.000000,4414.871582,4493.974121,4350.897461,4408.333496,0.000000,4.000000,85.000000,,,,0.000000,4.000000,4.000000,4.000000,4.000000,4.000000,4.000000,4.000000,4.000000,4.000000,4.000000,4.000000,4.000000,4.000000,4.000000,100.000000,,,,,,,,,,,,,,,,,,,,,,,,,,,,,,,,,,,,,,,,,,,,,,,,,,,,,,,,,,,,,,,,,,,,,,,,,,,,,,,,,,,,,,
1676060245.724955,1676060245.725040,56.000000,0.000000,4286.794922,4303.846191,4300.897461,4320.256348,4322.307617,4281.153809,4293.974121,4293.717773,4286.922852,4265.256348,4398.077148,4477.948730,4334.358887,4390.769043,0.000000,4.000000,85.000000,,,,0.000000,4.000000,4.000000,4.000000,4.000000,4.000000,4.000000,4.000000,4.000000,4.000000,4.000000,4.000000,4.000000,4.000000,4.000000,100.000000,,,,,,,,,,,,,,,,,,,,,,,,,,,,,,,,,,,,,,,,,,,,,,,,,,,,,,,,,,,,,,,,,,,,,,,,,,,,,,,,,,,,,,
1676060245.732763,1676060245.732749,57.000000,0.000000,4301.794922,4319.743652,4319.230957,4332.563965,4324.358887,4290.769043,4308.461426,4306.025879,4299.743652,4277.563965,4418.205078,4499.102539,4348.077148,4412.051270,0.000000,4.000000,85.000000,,,,0.000000,4.000000,4.000000,4.000000,4.000000,4.000000,4.000000,4.000000,4.000000,4.000000,4.000000,4.000000,4.000000,4.000000,4.000000,100.000000,,,,,,,,,,,,,,,,,,,,,,,,,,,,,,,,,,,,,,,,,,,,,,,,,,,,,,,,,,,,,,,,,,,,,,,,,,,,,,,,,,,,,,
1676060245.740572,1676060245.740657,58.000000,0.000000,4323.846191,4335.000000,4337.179688,4346.794922,4327.307617,4300.256348,4312.563965,4316.538574,4311.153809,4283.333496,4438.846191,4518.846191,4366.410156,4437.436035,0.000000,4.000000,85.000000,,,,0.000000,4.000000,4.000000,4.000000,4.000000,4.000000,4.000000,4.000000,4.000000,4.000000,4.000000,4.000000,4.000000,4.000000,4.000000,100.000000,,,,,,,,,,,,,,,,,,,,,,,,,,,,,,,,,,,,,,,,,,,,,,,,,,,,,,,,,,,,,,,,,,,,,,,,,,,,,,,,,,,,,,
1676060245.748380,1676060245.748465,59.000000,0.000000,4304.871582,4313.077148,4308.461426,4325.000000,4313.846191,4284.487305,4286.025879,4294.487305,4294.487305,4263.846191,4411.410156,4488.974121,4344.487305,4411.153809,0.000000,4.000000,85.000000,,,,0.000000,4.000000,4.000000,4.000000,4.000000,4.000000,4.000000,4.000000,4.000000,4.000000,4.000000,4.000000,4.000000,4.000000,4.000000,100.000000,,,,,,,,,,,,,,,,,,,,,,,,,,,,,,,,,,,,,,,,,,,,,,,,,,,,,,,,,,,,,,,,,,,,,,,,,,,,,,,,,,,,,,
1676060245.756189,1676060245.756374,60.000000,0.000000,4285.384766,4303.974121,4289.487305,4307.051270,4306.922852,4275.000000,4280.641113,4287.179688,4290.128418,4269.487305,4396.025879,4466.666504,4330.000000,4388.333496,0.000000,4.000000,85.000000,,,,0.000000,4.000000,4.000000,4.000000,4.000000,4.000000,4.000000,4.000000,4.000000,4.000000,4.000000,4.000000,4.000000,4.000000,4.000000,100.000000,,,,,,,,,,,,,,,,,,,,,,,,,,,,,,,,,,,,,,,,,,,,,,,,,,,,,,,,,,,,,,,,,,,,,,,,,,,,,,,,,,,,,,
1676060245.763997,1676060245.764182,61.000000,0.000000,4297.563965,4320.769043,4306.538574,4316.153809,4312.692383,4282.563965,4297.179688,4304.102539,4306.410156,4286.538574,4413.205078,4482.563965,4346.538574,4401.153809,0.000000,4.000000,85.000000,,,,0.000000,4.000000,4.000000,4.000000,4.000000,4.000000,4.000000,4.000000,4.000000,4.000000,4.000000,4.000000,4.000000,4.000000,4.000000,100.000000,,,,,,,,,,,,,,,,,,,,,,,,,,,,,,,,,,,,,,,,,,,,,,,,,,,,,,,,,,,,,,,,,,,,,,,,,,,,,,,,,,,,,,
1676060245.771805,1676060245.772090,62.000000,0.000000,4308.461426,4325.897461,4309.871582,4323.846191,4314.487305,4283.461426,4299.358887,4313.589844,4313.333496,4280.769043,4419.487305,4490.384766,4356.922852,4415.512695,0.000000,4.000000,85.000000,,,,0.000000,4.000000,4.000000,4.000000,4.000000,4.000000,4.000000,4.000000,4.000000,4.000000,4.000000,4.000000,4.000000,4.000000,4.000000,100.000000,,,,,,,,,,,,,,,,,1.672527,1.425966,1.811706,0.987803,0.625809,1.523043,1.150084,1.480541,0.779801,0.718213,0.665402,1.243728,1.884629,1.034525,0.727830,1.076680,0.862240,1.319648,0.823339,0.627420,0.319553,0.384812,0.656509,0.261739,0.371473,0.442668,0.437648,0.480805,0.192850,0.212498,0.268273,0.215591,0.565820,0.464834,0.503637,0.427734,0.647249,1.004582,0.763324,0.802954,0.565349,0.869242,1.320118,0.707790,0.532679,0.938109,1.104992,1.602232,1.147843,0.916448,9.149475,3.909229,1.903841,1.452148,1.087007,1.171012,2.167104,2.099541,1.433143,0.959097,1.032292,1.295710,1.452148,1.148154,1.040551,1.257315,1.544923,1.891209,1.146180,1.050002
1676060245.779614,1676060245.779899,63.000000,0.000000,4291.794922,4314.487305,4293.333496,4316.025879,4309.102539,4275.769043,4289.230957,4307.692383,4308.077148,4277.692383,4410.897461,4477.436035,4345.128418,4408.077148,0.000000,4.000000,85.000000,,,,0.000000,4.000000,4.000000,4.000000,4.000000,4.000000,4.000000,4.000000,4.000000,4.000000,4.000000,4.000000,4.000000,4.000000,4.000000,100.000000,,,,,,,,,,,,,,,,,,,,,,,,,,,,,,,,,,,,,,,,,,,,,,,,,,,,,,,,,,,,,,,,,,,,,,,,,,,,,,,,,,,,,,
1676060245.787422,1676060245.787807,64.000000,0.000000,4278.461426,4311.922852,4293.717773,4310.512695,4307.436035,4273.077148,4294.230957,4302.692383,4309.743652,4282.820313,4404.358887,4470.512695,4336.922852,4393.205078,2506.000000,4.000000,85.000000,,,,0.000000,4.000000,4.000000,4.000000,4.000000,4.000000,4.000000,4.000000,4.000000,4.000000,4.000000,4.000000,4.000000,4.000000,4.000000,100.000000,,,,,,,,,,,,,,,,,,,,,,,,,,,,,,,,,,,,,,,,,,,,,,,,,,,,,,,,,,,,,,,,,,,,,,,,,,,,,,,,,,,,,,
1676060245.795231,1676060245.795616,65.000000,0.000000,4286.025879,4315.256348,4297.948730,4312.307617,4311.666504,4276.410156,4299.102539,4298.717773,4306.666504,4268.077148,4396.922852,4466.666504,4337.820313,4386.538574,2466.000000,4.000000,85.000000,,,,0.000000,4.000000,4.000000,4.000000,4.000000,4.000000,4.000000,4.000000,4.000000,4.000000,4.000000,4.000000,4.000000,4.000000,4.000000,100.000000,,,,,,,,,,,,,,,,,,,,,,,,,,,,,,,,,,,,,,,,,,,,,,,,,,,,,,,,,,,,,,,,,,,,,,,,,,,,,,,,,,,,,,
1676060245.803039,1676060245.803524,66.000000,0.000000,4286.794922,4300.256348,4282.051270,4306.666504,4313.589844,4278.205078,4283.717773,4284.615234,4284.102539,4248.333496,4385.641113,4455.769043,4327.307617,4385.384766,2391.000000,4.000000,85.000000,,,,0.000000,4.000000,4.000000,4.000000,4.000000,4.000000,4.000000,4.000000,4.000000,4.000000,4.000000,4.000000,4.000000,4.000000,4.000000,100.000000,,,,,,,,,,,,,,,,,,,,,,,,,,,,,,,,,,,,,,,,,,,,,,,,,,,,,,,,,,,,,,,,,,,,,,,,,,,,,,,,,,,,,,
1676060245.810847,1676060245.811333,67.000000,0.000000,4292.051270,4299.358887,4284.615234,4309.487305,4319.230957,4281.025879,4280.897461,4281.922852,4276.538574,4261.153809,4395.641113,4465.128418,4337.307617,4404.743652,2443.000000,4.000000,85.000000,,,,0.000000,4.000000,4.000000,4.000000,4.000000,4.000000,4.000000,4.000000,4.000000,4.000000,4.000000,4.000000,4.000000,4.000000,4.000000,100.000000,,,,,,,,,,,,,,,,,,,,,,,,,,,,,,,,,,,,,,,,,,,,,,,,,,,,,,,,,,,,,,,,,,,,,,,,,,,,,,,,,,,,,,
1676060245.818656,1676060245.819241,68.000000,0.000000,4324.102539,4333.974121,4319.358887,4333.846191,4334.102539,4286.153809,4302.051270,4303.846191,4299.487305,4287.051270,4428.846191,4493.846191,4375.000000,4443.461426,2428.000000,4.000000,85.000000,,,,0.000000,4.000000,4.000000,4.000000,4.000000,4.000000,4.000000,4.000000,4.000000,4.000000,4.000000,4.000000,4.000000,4.000000,4.000000,100.000000,,,,,,,,,,,,,,,,,,,,,,,,,,,,,,,,,,,,,,,,,,,,,,,,,,,,,,,,,,,,,,,,,,,,,,,,,,,,,,,,,,,,,,
1676060245.826464,1676060245.827049,69.000000,0.000000,4341.666504,4341.794922,4333.589844,4343.974121,4341.025879,4292.179688,4311.410156,4316.666504,4309.487305,4287.948730,4434.743652,4500.000000,4371.794922,4450.897461,2366.000000,4.000000,85.000000,,,,0.000000,4.000000,4.000000,4.000000,4.000000,4.000000,4.000000,4.000000,4.000000,4.000000,4.000000,4.000000,4.000000,4.000000,4.000000,100.000000,,,,,,,,,,,,,,,,,,,,,,,,,,,,,,,,,,,,,,,,,,,,,,,,,,,,,,,,,,,,,,,,,,,,,,,,,,,,,,,,,,,,,,
1676060245.834272,1676060245.834758,70.000000,0.000000,4324.487305,4312.820313,4316.410156,4327.820313,4324.102539,4298.077148,4300.000000,4305.769043,4295.512695,4275.641113,4411.410156,4488.589844,4343.333496,4432.051270,2221.000000,4.000000,85.000000,,,,0.000000,4.000000,4.000000,4.000000,4.000000,4.000000,4.000000,4.000000,4.000000,4.000000,4.000000,4.000000,4.000000,4.000000,4.000000,100.000000,,,,,,,,,,,,,,,,,,,,,,,,,,,,,,,,,,,,,,,,,,,,,,,,,,,,,,,,,,,,,,,,,,,,,,,,,,,,,,,,,,,,,,
1676060245.842081,1676060245.842566,71.000000,0.000000,4322.307617,4309.615234,4309.230957,4322.692383,4311.410156,4293.333496,4294.487305,4302.179688,4294.358887,4274.230957,4413.846191,4488.846191,4357.692383,4443.333496,2226.000000,4.000000,85.000000,,,,0.000000,4.000000,4.000000,4.000000,4.000000,4.000000,4.000000,4.000000,4.000000,4.000000,4.000000,4.000000,4.000000,4.000000,4.000000,100.000000,,,,,,,,,,,,,,,,,,,,,,,,,,,,,,,,,,,,,,,,,,,,,,,,,,,,,,,,,,,,,,,,,,,,,,,,,,,,,,,,,,,,,,
1676060245.849889,1676060245.850275,72.000000,0.000000,4338.077148,4326.282227,4315.897461,4329.358887,4322.179688,4279.615234,4297.692383,4316.538574,4311.025879,4276.025879,4436.153809,4495.384766,4378.333496,4462.563965,2272.000000,4.000000,85.000000,,,,0.000000,4.000000,4.000000,4.000000,4.000000,4.000000,4.000000,4.000000,4.000000,4.000000,4.000000,4.000000,4.000000,4.000000,4.000000,100.000000,,,,,,,,,,,,,,,,,,,,,,,,,,,,,,,,,,,,,,,,,,,,,,,,,,,,,,,,,,,,,,,,,,,,,,,,,,,,,,,,,,,,,,
1676060245.857698,1676060245.858083,73.000000,0.000000,4334.230957,4328.846191,4309.615234,4326.025879,4326.282227,4278.461426,4300.256348,4322.051270,4314.230957,4278.846191,4432.436035,4495.000000,4362.820313,4451.153809,2237.000000,4.000000,85.000000,,,,0.000000,4.000000,4.000000,4.000000,4.000000,4.000000,4.000000,4.000000,4.000000,4.000000,4.000000,4.000000,4.000000,4.000000,4.000000,100.000000,,,,,,,,,,,,,,,,,,,,,,,,,,,,,,,,,,,,,,,,,,,,,,,,,,,,,,,,,,,,,,,,,,,,,,,,,,,,,,,,,,,,,,
1676060245.865506,1676060245.865792,74.000000,0.000000,4325.256348,4329.487305,4299.230957,4323.846191,4311.153809,4282.563965,4294.102539,4312.820313,4298.717773,4281.410156,4414.230957,4490.000000,4349.615234,4439.871582,2723.000000,4.000000,85.000000,,,,0.000000,4.000000,4.000000,4.000000,4.000000,4.000000,4.000000,4.000000,4.000000,4.000000,4.000000,4.000000,4.000000,4.000000,4.000000,100.000000,,,,,,,,,,,,,,,,,,,,,,,,,,,,,,,,,,,,,,,,,,,,,,,,,,,,,,,,,,,,,,,,,,,,,,,,,,,,,,,,,,,,,,
