title:Psychopy_Kevin_1_2023-02-10T123604.435748, start timestamp:1676061364.338418, stop timestamp:1676061425.360925, headset type:EPOCX, headset serial:E2020A42, headset firmware:720, channels:125, sampling rate:eeg_128;pow_8, samples:7816      , version:2.1, 
Timestamp,OriginalTimestamp,EEG.Counter,EEG.Interpolated,EEG.AF3,EEG.F7,EEG.F3,EEG.FC5,EEG.T7,EEG.P7,EEG.O1,EEG.O2,EEG.P8,EEG.T8,EEG.FC6,EEG.F4,EEG.F8,EEG.AF4,EEG.RawCq,EEG.Battery,EEG.BatteryPercent,MarkerIndex,MarkerType,MarkerValueInt,EEG.MarkerHardware,CQ.AF3,CQ.F7,CQ.F3,CQ.FC5,CQ.T7,CQ.P7,CQ.O1,CQ.O2,CQ.P8,CQ.T8,CQ.FC6,CQ.F4,CQ.F8,CQ.AF4,CQ.Overall,EQ.SampleRateQuality,EQ.OVERALL,EQ.AF3,EQ.F7,EQ.F3,EQ.FC5,EQ.T7,EQ.P7,EQ.O1,EQ.O2,EQ.P8,EQ.T8,EQ.FC6,EQ.F4,EQ.F8,EQ.AF4,POW.AF3.Theta,POW.AF3.Alpha,POW.AF3.BetaL,POW.AF3.BetaH,POW.AF3.Gamma,POW.F7.Theta,POW.F7.Alpha,POW.F7.BetaL,POW.F7.BetaH,POW.F7.Gamma,POW.F3.Theta,POW.F3.Alpha,POW.F3.BetaL,POW.F3.BetaH,POW.F3.Gamma,POW.FC5.Theta,POW.FC5.Alpha,POW.FC5.BetaL,POW.FC5.BetaH,POW.FC5.Gamma,POW.T7.Theta,POW.T7.Alpha,POW.T7.BetaL,POW.T7.BetaH,POW.T7.Gamma,POW.P7.Theta,POW.P7.Alpha,POW.P7.BetaL,POW.P7.BetaH,POW.P7.Gamma,POW.O1.Theta,POW.O1.Alpha,POW.O1.BetaL,POW.O1.BetaH,POW.O1.Gamma,POW.O2.Theta,POW.O2.Alpha,POW.O2.BetaL,POW.O2.BetaH,POW.O2.Gamma,POW.P8.Theta,POW.P8.Alpha,POW.P8.BetaL,POW.P8.BetaH,POW.P8.Gamma,POW.T8.Theta,POW.T8.Alpha,POW.T8.BetaL,POW.T8.BetaH,POW.T8.Gamma,POW.FC6.Theta,POW.FC6.Alpha,POW.FC6.BetaL,POW.FC6.BetaH,POW.FC6.Gamma,POW.F4.Theta,POW.F4.Alpha,POW.F4.BetaL,POW.F4.BetaH,POW.F4.Gamma,POW.F8.Theta,POW.F8.Alpha,POW.F8.BetaL,POW.F8.BetaH,POW.F8.Gamma,POW.AF4.Theta,POW.AF4.Alpha,POW.AF4.BetaL,POW.AF4.BetaH,POW.AF4.Gamma
1676061364.338418,1676061364.339532,82.000000,0.000000,4294.871582,4281.538574,4309.615234,4307.563965,4265.256348,4271.025879,4249.743652,4250.512695,4262.692383,4227.179688,4414.615234,4465.769043,4345.384766,4369.487305,2541.000000,4.000000,81.000000,,,,0.000000,4.000000,4.000000,4.000000,4.000000,4.000000,4.000000,4.000000,4.000000,4.000000,4.000000,4.000000,4.000000,4.000000,4.000000,100.000000,,,,,,,,,,,,,,,,,,,,,,,,,,,,,,,,,,,,,,,,,,,,,,,,,,,,,,,,,,,,,,,,,,,,,,,,,,,,,,,,,,,,,,
1676061364.346227,1676061364.347440,83.000000,0.000000,4293.333496,4289.102539,4310.641113,4299.487305,4260.897461,4263.717773,4243.717773,4232.820313,4258.077148,4224.102539,4399.230957,4460.641113,4346.922852,4368.717773,2785.000000,4.000000,81.000000,,,,0.000000,4.000000,4.000000,4.000000,4.000000,4.000000,4.000000,4.000000,4.000000,4.000000,4.000000,4.000000,4.000000,4.000000,4.000000,100.000000,,,,,,,,,,,,,,,,,,,,,,,,,,,,,,,,,,,,,,,,,,,,,,,,,,,,,,,,,,,,,,,,,,,,,,,,,,,,,,,,,,,,,,
1676061364.354035,1676061364.355249,84.000000,0.000000,4296.922852,4283.077148,4302.820313,4292.692383,4252.948730,4266.538574,4237.820313,4227.948730,4258.974121,4216.410156,4404.871582,4459.230957,4337.563965,4367.563965,2808.000000,4.000000,81.000000,,,,0.000000,4.000000,4.000000,4.000000,4.000000,4.000000,4.000000,4.000000,4.000000,4.000000,4.000000,4.000000,4.000000,4.000000,4.000000,100.000000,,,,,,,,,,,,,,,,,,,,,,,,,,,,,,,,,,,,,,,,,,,,,,,,,,,,,,,,,,,,,,,,,,,,,,,,,,,,,,,,,,,,,,
1676061364.361843,1676061364.363057,85.000000,0.000000,4295.128418,4276.153809,4297.307617,4299.871582,4251.282227,4274.102539,4240.384766,4240.128418,4262.948730,4214.487305,4415.000000,4462.820313,4330.897461,4369.487305,2628.000000,4.000000,81.000000,,,,0.000000,4.000000,4.000000,4.000000,4.000000,4.000000,4.000000,4.000000,4.000000,4.000000,4.000000,4.000000,4.000000,4.000000,4.000000,100.000000,,,,,,,,,,,,,,,,,,,,,,,,,,,,,,,,,,,,,,,,,,,,,,,,,,,,,,,,,,,,,,,,,,,,,,,,,,,,,,,,,,,,,,
1676061364.369652,1676061364.370766,86.000000,0.000000,4274.230957,4265.641113,4291.025879,4299.487305,4249.102539,4278.077148,4252.563965,4256.025879,4268.717773,4221.025879,4402.820313,4457.948730,4325.769043,4358.461426,2541.000000,4.000000,81.000000,,,,0.000000,4.000000,4.000000,4.000000,4.000000,4.000000,4.000000,4.000000,4.000000,4.000000,4.000000,4.000000,4.000000,4.000000,4.000000,100.000000,,,,,,,,,,,,,,,,,,,,,,,,,,,,,,,,,,,,,,,,,,,,,,,,,,,,,,,,,,,,,,,,,,,,,,,,,,,,,,,,,,,,,,
1676061364.377460,1676061364.378574,87.000000,0.000000,4245.897461,4247.563965,4277.436035,4278.974121,4250.128418,4276.794922,4257.948730,4262.179688,4276.922852,4222.692383,4382.820313,4441.538574,4320.000000,4328.846191,2785.000000,4.000000,81.000000,,,,0.000000,4.000000,4.000000,4.000000,4.000000,4.000000,4.000000,4.000000,4.000000,4.000000,4.000000,4.000000,4.000000,4.000000,4.000000,100.000000,,,,,,,,,,,,,,,,,,,,,,,,,,,,,,,,,,,,,,,,,,,,,,,,,,,,,,,,,,,,,,,,,,,,,,,,,,,,,,,,,,,,,,
1676061364.385269,1676061364.386283,88.000000,0.000000,4230.512695,4232.051270,4265.769043,4264.487305,4251.922852,4281.025879,4255.897461,4258.846191,4283.974121,4222.948730,4376.666504,4436.410156,4317.179688,4309.871582,2808.000000,4.000000,81.000000,,,,0.000000,4.000000,4.000000,4.000000,4.000000,4.000000,4.000000,4.000000,4.000000,4.000000,4.000000,4.000000,4.000000,4.000000,4.000000,100.000000,,,,,,,,,,,,,,,,,,,,,,,,,,,,,,,,,,,,,,,,,,,,,,,,,,,,,,,,,,,,,,,,,,,,,,,,,,,,,,,,,,,,,,
1676061364.393077,1676061364.394091,89.000000,0.000000,4231.922852,4229.487305,4266.410156,4272.051270,4244.102539,4288.717773,4256.666504,4264.358887,4284.743652,4230.384766,4380.897461,4444.871582,4310.897461,4315.384766,2628.000000,4.000000,81.000000,,,,0.000000,4.000000,4.000000,4.000000,4.000000,4.000000,4.000000,4.000000,4.000000,4.000000,4.000000,4.000000,4.000000,4.000000,4.000000,100.000000,,,,,,,,,,,,,,,,,,,,,,,,,,,,,,,,,,,,,,,,,,,,,,,,,,,,,,,,,,,,,,,,,,,,,,,,,,,,,,,,,,,,,,
1676061364.400885,1676061364.401800,90.000000,0.000000,4231.282227,4231.410156,4270.641113,4275.512695,4236.922852,4282.436035,4257.563965,4275.384766,4279.230957,4231.538574,4387.948730,4443.333496,4300.256348,4321.282227,2541.000000,4.000000,81.000000,,,,0.000000,4.000000,4.000000,4.000000,4.000000,4.000000,4.000000,4.000000,4.000000,4.000000,4.000000,4.000000,4.000000,4.000000,4.000000,100.000000,,,,,,,,,,,,,,,,,,,,,,,,,,,,,,,,,,,,,,,,,,,,,,,,,,,,,,,,,,,,,,,,,,,,,,,,,,,,,,,,,,,,,,
1676061364.408694,1676061364.409608,91.000000,0.000000,4225.641113,4223.974121,4272.692383,4265.256348,4235.384766,4269.487305,4253.205078,4269.358887,4277.692383,4227.692383,4398.077148,4441.410156,4304.358887,4320.000000,2785.000000,4.000000,81.000000,,,,0.000000,4.000000,4.000000,4.000000,4.000000,4.000000,4.000000,4.000000,4.000000,4.000000,4.000000,4.000000,4.000000,4.000000,4.000000,100.000000,,,,,,,,,,,,,,,,,,,,,,,,,,,,,,,,,,,,,,,,,,,,,,,,,,,,,,,,,,,,,,,,,,,,,,,,,,,,,,,,,,,,,,
1676061364.416502,1676061364.417317,92.000000,0.000000,4234.615234,4217.179688,4276.153809,4263.846191,4224.358887,4265.512695,4244.871582,4252.948730,4275.128418,4228.461426,4396.922852,4453.333496,4313.333496,4327.692383,2808.000000,4.000000,81.000000,,,,0.000000,4.000000,4.000000,4.000000,4.000000,4.000000,4.000000,4.000000,4.000000,4.000000,4.000000,4.000000,4.000000,4.000000,4.000000,100.000000,,,,,,,,,,,,,,,,,,,,,,,,,,,,,,,,,,,,,,,,,,,,,,,,,,,,,,,,,,,,,,,,,,,,,,,,,,,,,,,,,,,,,,
1676061364.424310,1676061364.425125,93.000000,0.000000,4256.282227,4228.077148,4284.743652,4277.948730,4220.769043,4269.615234,4241.282227,4248.205078,4266.025879,4230.512695,4390.000000,4461.922852,4314.615234,4346.666504,2628.000000,4.000000,81.000000,,,,0.000000,4.000000,4.000000,4.000000,4.000000,4.000000,4.000000,4.000000,4.000000,4.000000,4.000000,4.000000,4.000000,4.000000,4.000000,100.000000,,,,,,,,,,,,,,,,,,,,,,,,,,,,,,,,,,,,,,,,,,,,,,,,,,,,,,,,,,,,,,,,,,,,,,,,,,,,,,,,,,,,,,
1676061364.432119,1676061364.432834,94.000000,0.000000,4274.487305,4247.307617,4302.179688,4293.974121,4240.000000,4273.846191,4249.871582,4257.692383,4263.717773,4234.102539,4407.307617,4466.025879,4326.025879,4367.563965,2541.000000,4.000000,81.000000,,,,0.000000,4.000000,4.000000,4.000000,4.000000,4.000000,4.000000,4.000000,4.000000,4.000000,4.000000,4.000000,4.000000,4.000000,4.000000,100.000000,,,,,,,,,,,,,,,,,16.566544,8.003786,0.946040,0.276403,0.285630,11.497077,9.944456,0.669054,0.350777,0.218247,4.472521,3.176395,0.405953,0.204369,0.129494,3.797289,4.028807,0.319129,0.226472,0.236824,8.891243,2.835457,0.486749,0.559233,0.426325,2.283939,2.328306,0.377388,0.359662,0.223030,5.171134,9.256841,1.285837,0.638697,0.202069,5.763921,14.772190,2.608499,0.911299,0.274182,1.589885,3.911341,0.574218,0.207865,0.271272,7.890755,5.643070,1.106248,0.342859,0.483414,8.499006,2.509109,1.272395,1.174982,1.273903,6.043290,2.233959,0.753577,0.433580,0.303274,6.308579,3.642225,1.520714,0.996359,0.698142,12.125954,4.381466,1.319394,0.422337,0.559531
1676061364.439927,1676061364.440642,95.000000,0.000000,4291.410156,4262.307617,4320.256348,4304.743652,4252.948730,4273.077148,4261.153809,4265.512695,4264.615234,4230.384766,4426.025879,4479.487305,4343.589844,4383.717773,2785.000000,4.000000,81.000000,,,,0.000000,4.000000,4.000000,4.000000,4.000000,4.000000,4.000000,4.000000,4.000000,4.000000,4.000000,4.000000,4.000000,4.000000,4.000000,100.000000,,,,,,,,,,,,,,,,,,,,,,,,,,,,,,,,,,,,,,,,,,,,,,,,,,,,,,,,,,,,,,,,,,,,,,,,,,,,,,,,,,,,,,
1676061364.447736,1676061364.448351,96.000000,0.000000,4309.358887,4278.589844,4321.153809,4308.333496,4252.179688,4269.743652,4261.922852,4262.307617,4263.589844,4220.641113,4423.077148,4488.589844,4345.641113,4394.358887,2808.000000,4.000000,81.000000,,,,0.000000,4.000000,4.000000,4.000000,4.000000,4.000000,4.000000,4.000000,4.000000,4.000000,4.000000,4.000000,4.000000,4.000000,4.000000,100.000000,,,,,,,,,,,,,,,,,,,,,,,,,,,,,,,,,,,,,,,,,,,,,,,,,,,,,,,,,,,,,,,,,,,,,,,,,,,,,,,,,,,,,,
1676061364.455544,1676061364.456159,97.000000,0.000000,4314.487305,4286.794922,4308.205078,4309.871582,4255.128418,4269.487305,4253.717773,4253.461426,4264.871582,4224.358887,4420.384766,4483.205078,4344.871582,4398.846191,2628.000000,4.000000,81.000000,,,,0.000000,4.000000,4.000000,4.000000,4.000000,4.000000,4.000000,4.000000,4.000000,4.000000,4.000000,4.000000,4.000000,4.000000,4.000000,100.000000,,,,,,,,,,,,,,,,,,,,,,,,,,,,,,,,,,,,,,,,,,,,,,,,,,,,,,,,,,,,,,,,,,,,,,,,,,,,,,,,,,,,,,
1676061364.463352,1676061364.463868,98.000000,0.000000,4300.256348,4276.410156,4297.948730,4307.051270,4261.410156,4270.897461,4248.205078,4254.358887,4262.436035,4231.794922,4415.769043,4468.077148,4349.743652,4394.615234,2541.000000,4.000000,81.000000,,,,0.000000,4.000000,4.000000,4.000000,4.000000,4.000000,4.000000,4.000000,4.000000,4.000000,4.000000,4.000000,4.000000,4.000000,4.000000,100.000000,,,,,,,,,,,,,,,,,,,,,,,,,,,,,,,,,,,,,,,,,,,,,,,,,,,,,,,,,,,,,,,,,,,,,,,,,,,,,,,,,,,,,,
1676061364.471161,1676061364.471776,99.000000,0.000000,4272.436035,4261.538574,4288.333496,4286.666504,4256.666504,4267.179688,4251.410156,4258.461426,4260.256348,4219.743652,4395.128418,4453.589844,4336.410156,4375.256348,2785.000000,4.000000,81.000000,,,,0.000000,4.000000,4.000000,4.000000,4.000000,4.000000,4.000000,4.000000,4.000000,4.000000,4.000000,4.000000,4.000000,4.000000,4.000000,100.000000,,,,,,,,,,,,,,,,,,,,,,,,,,,,,,,,,,,,,,,,,,,,,,,,,,,,,,,,,,,,,,,,,,,,,,,,,,,,,,,,,,,,,,
1676061364.478969,1676061364.479585,100.000000,0.000000,4254.743652,4255.769043,4278.589844,4271.282227,4244.230957,4268.589844,4255.384766,4248.846191,4261.794922,4205.641113,4386.538574,4443.974121,4309.102539,4353.077148,2808.000000,4.000000,81.000000,,,,0.000000,4.000000,4.000000,4.000000,4.000000,4.000000,4.000000,4.000000,4.000000,4.000000,4.000000,4.000000,4.000000,4.000000,4.000000,100.000000,,,,,,,,,,,,,,,,,,,,,,,,,,,,,,,,,,,,,,,,,,,,,,,,,,,,,,,,,,,,,,,,,,,,,,,,,,,,,,,,,,,,,,
1676061364.486777,1676061364.487493,101.000000,0.000000,4244.743652,4243.077148,4266.666504,4271.538574,4236.666504,4274.102539,4245.897461,4232.563965,4258.205078,4200.384766,4385.128418,4434.743652,4291.410156,4337.179688,2628.000000,4.000000,81.000000,,,,0.000000,4.000000,4.000000,4.000000,4.000000,4.000000,4.000000,4.000000,4.000000,4.000000,4.000000,4.000000,4.000000,4.000000,4.000000,100.000000,,,,,,,,,,,,,,,,,,,,,,,,,,,,,,,,,,,,,,,,,,,,,,,,,,,,,,,,,,,,,,,,,,,,,,,,,,,,,,,,,,,,,,
1676061364.494586,1676061364.495301,102.000000,0.000000,4226.666504,4224.487305,4253.461426,4267.692383,4241.410156,4273.077148,4233.461426,4229.871582,4252.051270,4201.153809,4370.128418,4425.128418,4288.974121,4325.000000,2541.000000,4.000000,81.000000,,,,0.000000,4.000000,4.000000,4.000000,4.000000,4.000000,4.000000,4.000000,4.000000,4.000000,4.000000,4.000000,4.000000,4.000000,4.000000,100.000000,,,,,,,,,,,,,,,,,,,,,,,,,,,,,,,,,,,,,,,,,,,,,,,,,,,,,,,,,,,,,,,,,,,,,,,,,,,,,,,,,,,,,,
1676061364.502394,1676061364.503210,103.000000,0.000000,4213.717773,4218.717773,4257.563965,4261.666504,4241.666504,4267.948730,4235.384766,4236.410156,4259.487305,4211.025879,4357.307617,4418.974121,4297.692383,4314.358887,2785.000000,4.000000,81.000000,,,,0.000000,4.000000,4.000000,4.000000,4.000000,4.000000,4.000000,4.000000,4.000000,4.000000,4.000000,4.000000,4.000000,4.000000,4.000000,100.000000,,,,,,,,,,,,,,,,,,,,,,,,,,,,,,,,,,,,,,,,,,,,,,,,,,,,,,,,,,,,,,,,,,,,,,,,,,,,,,,,,,,,,,
1676061364.510203,1676061364.511018,104.000000,0.000000,4222.179688,4225.128418,4270.641113,4267.436035,4230.512695,4269.358887,4243.974121,4238.846191,4272.051270,4219.871582,4356.666504,4420.384766,4303.077148,4312.436035,2808.000000,4.000000,81.000000,,,,0.000000,4.000000,4.000000,4.000000,4.000000,4.000000,4.000000,4.000000,4.000000,4.000000,4.000000,4.000000,4.000000,4.000000,4.000000,100.000000,,,,,,,,,,,,,,,,,,,,,,,,,,,,,,,,,,,,,,,,,,,,,,,,,,,,,,,,,,,,,,,,,,,,,,,,,,,,,,,,,,,,,,
1676061364.518011,1676061364.518926,105.000000,0.000000,4236.153809,4231.794922,4270.897461,4275.256348,4230.384766,4274.358887,4244.871582,4236.282227,4270.000000,4217.436035,4370.512695,4431.282227,4295.769043,4323.333496,2628.000000,4.000000,81.000000,,,,0.000000,4.000000,4.000000,4.000000,4.000000,4.000000,4.000000,4.000000,4.000000,4.000000,4.000000,4.000000,4.000000,4.000000,4.000000,100.000000,,,,,,,,,,,,,,,,,,,,,,,,,,,,,,,,,,,,,,,,,,,,,,,,,,,,,,,,,,,,,,,,,,,,,,,,,,,,,,,,,,,,,,
1676061364.525819,1676061364.526735,106.000000,0.000000,4241.025879,4237.179688,4273.974121,4280.000000,4244.615234,4274.743652,4242.307617,4236.410156,4259.871582,4219.358887,4389.743652,4441.666504,4296.025879,4341.153809,2541.000000,4.000000,81.000000,,,,0.000000,4.000000,4.000000,4.000000,4.000000,4.000000,4.000000,4.000000,4.000000,4.000000,4.000000,4.000000,4.000000,4.000000,4.000000,100.000000,,,,,,,,,,,,,,,,,,,,,,,,,,,,,,,,,,,,,,,,,,,,,,,,,,,,,,,,,,,,,,,,,,,,,,,,,,,,,,,,,,,,,,
1676061364.533628,1676061364.534643,107.000000,0.000000,4252.692383,4253.205078,4294.743652,4294.615234,4255.769043,4272.436035,4247.820313,4245.769043,4258.717773,4231.538574,4396.922852,4447.563965,4316.666504,4357.051270,2785.000000,4.000000,81.000000,,,,0.000000,4.000000,4.000000,4.000000,4.000000,4.000000,4.000000,4.000000,4.000000,4.000000,4.000000,4.000000,4.000000,4.000000,4.000000,100.000000,,,,,,,,,,,,,,,,,,,,,,,,,,,,,,,,,,,,,,,,,,,,,,,,,,,,,,,,,,,,,,,,,,,,,,,,,,,,,,,,,,,,,,
1676061364.541436,1676061364.542452,108.000000,0.000000,4283.846191,4283.846191,4317.051270,4314.615234,4267.692383,4277.948730,4266.922852,4266.666504,4272.820313,4249.487305,4412.563965,4466.282227,4346.922852,4378.077148,2808.000000,4.000000,81.000000,,,,0.000000,4.000000,4.000000,4.000000,4.000000,4.000000,4.000000,4.000000,4.000000,4.000000,4.000000,4.000000,4.000000,4.000000,4.000000,100.000000,,,,,,,,,,,,,,,,,,,,,,,,,,,,,,,,,,,,,,,,,,,,,,,,,,,,,,,,,,,,,,,,,,,,,,,,,,,,,,,,,,,,,,
1676061364.549245,1676061364.550160,109.000000,0.000000,4316.282227,4307.692383,4323.333496,4323.333496,4281.153809,4291.410156,4281.794922,4282.563965,4284.487305,4266.794922,4441.666504,4488.974121,4369.102539,4406.538574,2628.000000,4.000000,81.000000,,,,0.000000,4.000000,4.000000,4.000000,4.000000,4.000000,4.000000,4.000000,4.000000,4.000000,4.000000,4.000000,4.000000,4.000000,4.000000,100.000000,,,,,,,,,,,,,,,,,,,,,,,,,,,,,,,,,,,,,,,,,,,,,,,,,,,,,,,,,,,,,,,,,,,,,,,,,,,,,,,,,,,,,,
1676061364.557053,1676061364.557969,110.000000,0.000000,4326.794922,4311.282227,4323.205078,4324.230957,4292.563965,4298.717773,4284.487305,4294.358887,4290.256348,4273.077148,4456.794922,4495.512695,4370.512695,4425.128418,2541.000000,4.000000,81.000000,,,,0.000000,4.000000,4.000000,4.000000,4.000000,4.000000,4.000000,4.000000,4.000000,4.000000,4.000000,4.000000,4.000000,4.000000,4.000000,100.000000,,,,,,,,,,,,,,,,,17.559202,7.274028,0.955036,0.254160,0.329853,11.806959,7.437255,0.652569,0.311892,0.230520,5.021093,3.105042,0.342988,0.206534,0.139598,4.023960,3.183496,0.257534,0.202775,0.196106,9.379869,1.822839,0.408679,0.493458,0.365296,2.335432,2.206387,0.502709,0.348978,0.231497,5.448840,8.129739,1.816335,0.621923,0.227953,6.024761,12.240624,3.195854,0.905254,0.286873,1.594213,3.322551,0.592044,0.223643,0.291969,7.676885,5.049929,0.870983,0.346733,0.496757,8.854667,2.672253,1.336815,0.931877,1.368800,6.704373,2.314052,0.862071,0.420458,0.365610,6.088027,3.698032,1.574043,0.940015,0.695528,11.992754,4.562581,1.338394,0.400832,0.558753
1676061364.564861,1676061364.565677,111.000000,0.000000,4329.615234,4322.179688,4328.974121,4331.538574,4309.871582,4301.538574,4298.077148,4316.666504,4299.230957,4283.333496,4466.538574,4503.589844,4376.666504,4433.974121,2785.000000,4.000000,81.000000,,,,0.000000,4.000000,4.000000,4.000000,4.000000,4.000000,4.000000,4.000000,4.000000,4.000000,4.000000,4.000000,4.000000,4.000000,4.000000,100.000000,,,,,,,,,,,,,,,,,,,,,,,,,,,,,,,,,,,,,,,,,,,,,,,,,,,,,,,,,,,,,,,,,,,,,,,,,,,,,,,,,,,,,,
1676061364.572670,1676061364.573586,112.000000,0.000000,4339.743652,4343.589844,4333.461426,4336.794922,4322.179688,4311.666504,4318.846191,4328.333496,4302.179688,4302.051270,4478.333496,4513.589844,4400.384766,4441.666504,2808.000000,4.000000,81.000000,,,,0.000000,4.000000,4.000000,4.000000,4.000000,4.000000,4.000000,4.000000,4.000000,4.000000,4.000000,4.000000,4.000000,4.000000,4.000000,100.000000,,,,,,,,,,,,,,,,,,,,,,,,,,,,,,,,,,,,,,,,,,,,,,,,,,,,,,,,,,,,,,,,,,,,,,,,,,,,,,,,,,,,,,
1676061364.580478,1676061364.581394,113.000000,0.000000,4345.512695,4347.051270,4327.179688,4329.615234,4326.666504,4325.128418,4323.846191,4321.410156,4301.538574,4311.922852,4471.794922,4509.230957,4416.153809,4444.871582,2628.000000,4.000000,81.000000,,,,0.000000,4.000000,4.000000,4.000000,4.000000,4.000000,4.000000,4.000000,4.000000,4.000000,4.000000,4.000000,4.000000,4.000000,4.000000,100.000000,,,,,,,,,,,,,,,,,,,,,,,,,,,,,,,,,,,,,,,,,,,,,,,,,,,,,,,,,,,,,,,,,,,,,,,,,,,,,,,,,,,,,,
1676061364.588287,1676061364.589202,114.000000,0.000000,4342.692383,4340.512695,4321.538574,4329.871582,4339.743652,4335.000000,4324.358887,4327.051270,4306.794922,4315.769043,4467.051270,4509.230957,4412.436035,4446.538574,2541.000000,4.000000,81.000000,,,,0.000000,4.000000,4.000000,4.000000,4.000000,4.000000,4.000000,4.000000,4.000000,4.000000,4.000000,4.000000,4.000000,4.000000,4.000000,100.000000,,,,,,,,,,,,,,,,,,,,,,,,,,,,,,,,,,,,,,,,,,,,,,,,,,,,,,,,,,,,,,,,,,,,,,,,,,,,,,,,,,,,,,
1676061364.596095,1676061364.596911,115.000000,0.000000,4341.538574,4344.487305,4326.538574,4339.230957,4355.512695,4343.333496,4335.256348,4346.538574,4311.410156,4327.820313,4484.230957,4519.743652,4402.820313,4449.487305,2785.000000,4.000000,81.000000,,,,0.000000,4.000000,4.000000,4.000000,4.000000,4.000000,4.000000,4.000000,4.000000,4.000000,4.000000,4.000000,4.000000,4.000000,4.000000,100.000000,,,,,,,,,,,,,,,,,,,,,,,,,,,,,,,,,,,,,,,,,,,,,,,,,,,,,,,,,,,,,,,,,,,,,,,,,,,,,,,,,,,,,,
1676061364.603903,1676061364.604719,116.000000,0.000000,4345.641113,4350.256348,4330.512695,4337.436035,4356.538574,4346.282227,4340.897461,4346.538574,4309.487305,4336.282227,4495.512695,4523.205078,4402.179688,4447.948730,2808.000000,4.000000,81.000000,,,,0.000000,4.000000,4.000000,4.000000,4.000000,4.000000,4.000000,4.000000,4.000000,4.000000,4.000000,4.000000,4.000000,4.000000,4.000000,100.000000,,,,,,,,,,,,,,,,,,,,,,,,,,,,,,,,,,,,,,,,,,,,,,,,,,,,,,,,,,,,,,,,,,,,,,,,,,,,,,,,,,,,,,
1676061364.611712,1676061364.612428,117.000000,0.000000,4356.153809,4352.051270,4331.538574,4337.948730,4352.436035,4344.102539,4337.436035,4333.846191,4307.307617,4336.025879,4492.820313,4522.307617,4413.589844,4452.436035,2628.000000,4.000000,81.000000,,,,0.000000,4.000000,4.000000,4.000000,4.000000,4.000000,4.000000,4.000000,4.000000,4.000000,4.000000,4.000000,4.000000,4.000000,4.000000,100.000000,,,,,,,,,,,,,,,,,,,,,,,,,,,,,,,,,,,,,,,,,,,,,,,,,,,,,,,,,,,,,,,,,,,,,,,,,,,,,,,,,,,,,,
1676061364.619520,1676061364.620236,118.000000,0.000000,4363.589844,4350.641113,4329.230957,4346.538574,4352.051270,4343.589844,4334.487305,4337.692383,4305.256348,4339.487305,4490.897461,4523.974121,4420.256348,4462.436035,2541.000000,4.000000,81.000000,,,,0.000000,4.000000,4.000000,4.000000,4.000000,4.000000,4.000000,4.000000,4.000000,4.000000,4.000000,4.000000,4.000000,4.000000,4.000000,100.000000,,,,,,,,,,,,,,,,,,,,,,,,,,,,,,,,,,,,,,,,,,,,,,,,,,,,,,,,,,,,,,,,,,,,,,,,,,,,,,,,,,,,,,
1676061364.627328,1676061364.627945,119.000000,0.000000,4363.974121,4351.922852,4324.102539,4343.461426,4356.922852,4341.410156,4335.000000,4352.179688,4307.820313,4342.948730,4495.128418,4523.333496,4411.922852,4463.077148,2785.000000,4.000000,81.000000,,,,0.000000,4.000000,4.000000,4.000000,4.000000,4.000000,4.000000,4.000000,4.000000,4.000000,4.000000,4.000000,4.000000,4.000000,4.000000,100.000000,,,,,,,,,,,,,,,,,,,,,,,,,,,,,,,,,,,,,,,,,,,,,,,,,,,,,,,,,,,,,,,,,,,,,,,,,,,,,,,,,,,,,,
1676061364.635137,1676061364.635753,120.000000,0.000000,4364.487305,4356.153809,4327.820313,4337.051270,4360.769043,4335.000000,4338.205078,4358.077148,4318.077148,4340.769043,4495.897461,4524.358887,4413.717773,4457.948730,2808.000000,4.000000,81.000000,,,,0.000000,4.000000,4.000000,4.000000,4.000000,4.000000,4.000000,4.000000,4.000000,4.000000,4.000000,4.000000,4.000000,4.000000,4.000000,100.000000,,,,,,,,,,,,,,,,,,,,,,,,,,,,,,,,,,,,,,,,,,,,,,,,,,,,,,,,,,,,,,,,,,,,,,,,,,,,,,,,,,,,,,
1676061364.642945,1676061364.643462,121.000000,0.000000,4364.230957,4349.615234,4330.384766,4339.230957,4353.461426,4332.307617,4335.897461,4352.179688,4319.230957,4335.512695,4491.282227,4525.000000,4421.410156,4454.487305,2628.000000,4.000000,81.000000,,,,0.000000,4.000000,4.000000,4.000000,4.000000,4.000000,4.000000,4.000000,4.000000,4.000000,4.000000,4.000000,4.000000,4.000000,4.000000,100.000000,,,,,,,,,,,,,,,,,,,,,,,,,,,,,,,,,,,,,,,,,,,,,,,,,,,,,,,,,,,,,,,,,,,,,,,,,,,,,,,,,,,,,,
1676061364.650754,1676061364.651370,122.000000,0.000000,4359.615234,4339.743652,4321.153809,4337.051270,4346.538574,4328.205078,4323.333496,4342.051270,4304.743652,4329.230957,4488.846191,4516.410156,4408.333496,4454.487305,2541.000000,4.000000,81.000000,,,,0.000000,4.000000,4.000000,4.000000,4.000000,4.000000,4.000000,4.000000,4.000000,4.000000,4.000000,4.000000,4.000000,4.000000,4.000000,100.000000,,,,,,,,,,,,,,,,,,,,,,,,,,,,,,,,,,,,,,,,,,,,,,,,,,,,,,,,,,,,,,,,,,,,,,,,,,,,,,,,,,,,,,
1676061364.658562,1676061364.659179,123.000000,0.000000,4354.487305,4342.051270,4315.769043,4332.179688,4346.538574,4316.794922,4315.256348,4334.102539,4293.077148,4325.769043,4488.461426,4503.717773,4400.641113,4455.897461,2785.000000,4.000000,81.000000,,,,0.000000,4.000000,4.000000,4.000000,4.000000,4.000000,4.000000,4.000000,4.000000,4.000000,4.000000,4.000000,4.000000,4.000000,4.000000,100.000000,,,,,,,,,,,,,,,,,,,,,,,,,,,,,,,,,,,,,,,,,,,,,,,,,,,,,,,,,,,,,,,,,,,,,,,,,,,,,,,,,,,,,,
1676061364.666370,1676061364.667087,124.000000,0.000000,4346.666504,4343.205078,4317.692383,4333.333496,4337.051270,4309.871582,4318.077148,4328.077148,4294.358887,4317.051270,4477.179688,4494.102539,4402.820313,4444.871582,2808.000000,4.000000,81.000000,,,,0.000000,4.000000,4.000000,4.000000,4.000000,4.000000,4.000000,4.000000,4.000000,4.000000,4.000000,4.000000,4.000000,4.000000,4.000000,100.000000,,,,,,,,,,,,,,,,,,,,,,,,,,,,,,,,,,,,,,,,,,,,,,,,,,,,,,,,,,,,,,,,,,,,,,,,,,,,,,,,,,,,,,
1676061364.674179,1676061364.674896,125.000000,0.000000,4338.461426,4334.743652,4312.179688,4329.230957,4326.794922,4317.179688,4316.410156,4319.358887,4296.282227,4303.461426,4454.487305,4488.077148,4396.153809,4424.358887,2628.000000,4.000000,81.000000,,,,0.000000,4.000000,4.000000,4.000000,4.000000,4.000000,4.000000,4.000000,4.000000,4.000000,4.000000,4.000000,4.000000,4.000000,4.000000,100.000000,,,,,,,,,,,,,,,,,,,,,,,,,,,,,,,,,,,,,,,,,,,,,,,,,,,,,,,,,,,,,,,,,,,,,,,,,,,,,,,,,,,,,,
1676061364.681987,1676061364.682804,126.000000,0.000000,4331.922852,4325.641113,4300.384766,4320.641113,4328.974121,4322.436035,4308.333496,4314.102539,4292.436035,4304.743652,4451.794922,4489.358887,4391.922852,4423.205078,2541.000000,4.000000,81.000000,,,,0.000000,4.000000,4.000000,4.000000,4.000000,4.000000,4.000000,4.000000,4.000000,4.000000,4.000000,4.000000,4.000000,4.000000,4.000000,100.000000,,,,,,,,,,,,,,,,,16.859055,7.184859,1.199970,0.252125,0.369786,11.020120,6.011568,0.781453,0.282911,0.253603,5.095455,3.146378,0.340576,0.207369,0.151904,3.860534,2.815550,0.248859,0.196295,0.159449,8.811177,1.251703,0.400005,0.439733,0.306831,2.167427,1.894520,0.655229,0.314926,0.242444,5.232902,6.728123,2.392960,0.572157,0.260992,5.886857,9.583530,3.698350,0.847873,0.294250,1.454536,2.652071,0.624170,0.236479,0.298607,6.869414,4.213554,0.766286,0.383566,0.482821,8.547318,2.860585,1.352130,0.730393,1.377458,6.818582,2.376977,0.917202,0.410276,0.413692,5.499710,3.697567,1.648909,0.874241,0.664754,10.905151,4.953688,1.458513,0.401661,0.548596
1676061364.689795,1676061364.690612,127.000000,0.000000,4315.897461,4312.436035,4295.256348,4321.666504,4324.102539,4314.871582,4306.025879,4318.461426,4290.641113,4306.153809,4468.846191,4491.922852,4394.358887,4427.948730,81.000000,4.000000,81.000000,,,,0.000000,4.000000,4.000000,4.000000,4.000000,4.000000,4.000000,4.000000,4.000000,4.000000,4.000000,4.000000,4.000000,4.000000,4.000000,100.000000,,,,,,,,,,,,,,,,,,,,,,,,,,,,,,,,,,,,,,,,,,,,,,,,,,,,,,,,,,,,,,,,,,,,,,,,,,,,,,,,,,,,,,
1676061364.697604,1676061364.698521,0.000000,0.000000,4300.897461,4306.153809,4297.692383,4322.307617,4315.641113,4311.922852,4311.282227,4320.512695,4295.384766,4293.974121,4466.153809,4485.128418,4393.974121,4417.436035,2087.000000,4.000000,81.000000,,,,0.000000,4.000000,4.000000,4.000000,4.000000,4.000000,4.000000,4.000000,4.000000,4.000000,4.000000,4.000000,4.000000,4.000000,4.000000,100.000000,,,,,,,,,,,,,,,,,,,,,,,,,,,,,,,,,,,,,,,,,,,,,,,,,,,,,,,,,,,,,,,,,,,,,,,,,,,,,,,,,,,,,,
1676061364.705412,1676061364.706329,1.000000,0.000000,4306.666504,4313.461426,4301.666504,4316.025879,4320.769043,4321.153809,4314.743652,4314.487305,4299.102539,4291.922852,4456.410156,4483.205078,4385.641113,4415.000000,2062.000000,4.000000,81.000000,,,,0.000000,4.000000,4.000000,4.000000,4.000000,4.000000,4.000000,4.000000,4.000000,4.000000,4.000000,4.000000,4.000000,4.000000,4.000000,100.000000,,,,,,,,,,,,,,,,,,,,,,,,,,,,,,,,,,,,,,,,,,,,,,,,,,,,,,,,,,,,,,,,,,,,,,,,,,,,,,,,,,,,,,
1676061364.713220,1676061364.714238,2.000000,0.000000,4315.897461,4311.410156,4301.922852,4316.153809,4325.641113,4323.461426,4308.589844,4311.282227,4295.897461,4310.897461,4471.025879,4488.589844,4387.820313,4430.256348,2451.000000,4.000000,81.000000,,,,0.000000,4.000000,4.000000,4.000000,4.000000,4.000000,4.000000,4.000000,4.000000,4.000000,4.000000,4.000000,4.000000,4.000000,4.000000,100.000000,,,,,,,,,,,,,,,,,,,,,,,,,,,,,,,,,,,,,,,,,,,,,,,,,,,,,,,,,,,,,,,,,,,,,,,,,,,,,,,,,,,,,,
1676061364.721029,1676061364.722046,3.000000,0.000000,4306.025879,4300.641113,4299.615234,4322.692383,4319.230957,4312.948730,4300.897461,4314.358887,4293.589844,4323.461426,4474.615234,4487.692383,4400.384766,4430.769043,2376.000000,4.000000,81.000000,,,,0.000000,4.000000,4.000000,4.000000,4.000000,4.000000,4.000000,4.000000,4.000000,4.000000,4.000000,4.000000,4.000000,4.000000,4.000000,100.000000,,,,,,,,,,,,,,,,,,,,,,,,,,,,,,,,,,,,,,,,,,,,,,,,,,,,,,,,,,,,,,,,,,,,,,,,,,,,,,,,,,,,,,
1676061364.728837,1676061364.729954,4.000000,0.000000,4295.769043,4302.692383,4299.871582,4323.717773,4314.743652,4310.641113,4304.487305,4321.538574,4299.615234,4320.512695,4460.128418,4482.436035,4407.563965,4416.410156,2461.000000,4.000000,81.000000,,,,0.000000,4.000000,4.000000,4.000000,4.000000,4.000000,4.000000,4.000000,4.000000,4.000000,4.000000,4.000000,4.000000,4.000000,4.000000,100.000000,,,,,,,,,,,,,,,,,,,,,,,,,,,,,,,,,,,,,,,,,,,,,,,,,,,,,,,,,,,,,,,,,,,,,,,,,,,,,,,,,,,,,,
1676061364.736646,1676061364.737763,5.000000,0.000000,4297.692383,4304.230957,4299.743652,4313.717773,4312.820313,4314.487305,4311.282227,4322.051270,4304.743652,4312.948730,4454.358887,4482.692383,4394.871582,4407.948730,2112.000000,4.000000,81.000000,,,,0.000000,4.000000,4.000000,4.000000,4.000000,4.000000,4.000000,4.000000,4.000000,4.000000,4.000000,4.000000,4.000000,4.000000,4.000000,100.000000,,,,,,,,,,,,,,,,,,,,,,,,,,,,,,,,,,,,,,,,,,,,,,,,,,,,,,,,,,,,,,,,,,,,,,,,,,,,,,,,,,,,,,
1676061364.744454,1676061364.745471,6.000000,0.000000,4296.922852,4294.615234,4293.077148,4307.436035,4312.948730,4311.538574,4305.512695,4315.128418,4298.333496,4306.538574,4450.641113,4482.563965,4376.794922,4403.205078,2221.000000,4.000000,81.000000,,,,0.000000,4.000000,4.000000,4.000000,4.000000,4.000000,4.000000,4.000000,4.000000,4.000000,4.000000,4.000000,4.000000,4.000000,4.000000,100.000000,,,,,,,,,,,,,,,,,,,,,,,,,,,,,,,,,,,,,,,,,,,,,,,,,,,,,,,,,,,,,,,,,,,,,,,,,,,,,,,,,,,,,,
1676061364.752262,1676061364.753280,7.000000,0.000000,4283.589844,4285.512695,4285.641113,4309.358887,4311.794922,4301.538574,4289.358887,4307.820313,4287.179688,4299.230957,4451.538574,4472.051270,4369.743652,4396.153809,2324.000000,4.000000,81.000000,,,,0.000000,4.000000,4.000000,4.000000,4.000000,4.000000,4.000000,4.000000,4.000000,4.000000,4.000000,4.000000,4.000000,4.000000,4.000000,100.000000,,,,,,,,,,,,,,,,,,,,,,,,,,,,,,,,,,,,,,,,,,,,,,,,,,,,,,,,,,,,,,,,,,,,,,,,,,,,,,,,,,,,,,
1676061364.760071,1676061364.760988,8.000000,0.000000,4271.794922,4284.487305,4288.333496,4308.461426,4307.307617,4293.717773,4283.846191,4301.153809,4283.974121,4288.205078,4456.922852,4460.384766,4366.025879,4388.077148,1663.000000,4.000000,81.000000,,,,0.000000,4.000000,4.000000,4.000000,4.000000,4.000000,4.000000,4.000000,4.000000,4.000000,4.000000,4.000000,4.000000,4.000000,4.000000,100.000000,,,,,,,,,,,,,,,,,,,,,,,,,,,,,,,,,,,,,,,,,,,,,,,,,,,,,,,,,,,,,,,,,,,,,,,,,,,,,,,,,,,,,,
1676061364.767879,1676061364.768897,9.000000,0.000000,4272.563965,4283.589844,4289.358887,4298.717773,4306.666504,4292.820313,4287.307617,4291.410156,4285.769043,4280.769043,4435.769043,4456.666504,4371.153809,4381.666504,2449.000000,4.000000,81.000000,,,,0.000000,4.000000,4.000000,4.000000,4.000000,4.000000,4.000000,4.000000,4.000000,4.000000,4.000000,4.000000,4.000000,4.000000,4.000000,100.000000,,,,,,,,,,,,,,,,,,,,,,,,,,,,,,,,,,,,,,,,,,,,,,,,,,,,,,,,,,,,,,,,,,,,,,,,,,,,,,,,,,,,,,
1676061364.775688,1676061364.776705,10.000000,0.000000,4275.769043,4277.051270,4281.410156,4296.666504,4299.102539,4293.717773,4281.282227,4280.384766,4283.461426,4281.025879,4413.717773,4458.461426,4376.282227,4382.179688,2531.000000,4.000000,81.000000,,,,0.000000,4.000000,4.000000,4.000000,4.000000,4.000000,4.000000,4.000000,4.000000,4.000000,4.000000,4.000000,4.000000,4.000000,4.000000,100.000000,,,,,,,,,,,,,,,,,,,,,,,,,,,,,,,,,,,,,,,,,,,,,,,,,,,,,,,,,,,,,,,,,,,,,,,,,,,,,,,,,,,,,,
1676061364.783496,1676061364.784613,11.000000,0.000000,4276.153809,4277.820313,4283.846191,4306.410156,4289.871582,4295.769043,4274.743652,4277.692383,4278.333496,4275.000000,4434.615234,4460.512695,4366.282227,4390.512695,2783.000000,4.000000,81.000000,,,,0.000000,4.000000,4.000000,4.000000,4.000000,4.000000,4.000000,4.000000,4.000000,4.000000,4.000000,4.000000,4.000000,4.000000,4.000000,100.000000,,,,,,,,,,,,,,,,,,,,,,,,,,,,,,,,,,,,,,,,,,,,,,,,,,,,,,,,,,,,,,,,,,,,,,,,,,,,,,,,,,,,,,
1676061364.791304,1676061364.792422,12.000000,0.000000,4278.846191,4282.692383,4295.641113,4309.358887,4291.794922,4296.153809,4281.153809,4284.743652,4282.563965,4269.743652,4447.051270,4460.384766,4355.897461,4393.205078,2808.000000,4.000000,81.000000,,,,0.000000,4.000000,4.000000,4.000000,4.000000,4.000000,4.000000,4.000000,4.000000,4.000000,4.000000,4.000000,4.000000,4.000000,4.000000,100.000000,,,,,,,,,,,,,,,,,,,,,,,,,,,,,,,,,,,,,,,,,,,,,,,,,,,,,,,,,,,,,,,,,,,,,,,,,,,,,,,,,,,,,,
1676061364.799113,1676061364.800330,13.000000,0.000000,4283.205078,4279.871582,4296.794922,4304.871582,4286.282227,4291.153809,4284.871582,4288.846191,4290.256348,4279.358887,4425.897461,4461.666504,4367.948730,4392.820313,2621.000000,4.000000,81.000000,,,,0.000000,4.000000,4.000000,4.000000,4.000000,4.000000,4.000000,4.000000,4.000000,4.000000,4.000000,4.000000,4.000000,4.000000,4.000000,100.000000,,,,,,,,,,,,,,,,,,,,,,,,,,,,,,,,,,,,,,,,,,,,,,,,,,,,,,,,,,,,,,,,,,,,,,,,,,,,,,,,,,,,,,
1676061364.806921,1676061364.808139,14.000000,0.000000,4283.461426,4272.563965,4291.538574,4301.153809,4278.205078,4287.948730,4277.692383,4283.717773,4288.974121,4284.743652,4419.358887,4466.666504,4382.307617,4400.641113,2531.000000,4.000000,81.000000,,,,0.000000,4.000000,4.000000,4.000000,4.000000,4.000000,4.000000,4.000000,4.000000,4.000000,4.000000,4.000000,4.000000,4.000000,4.000000,100.000000,1.000000,58.333332,4.000000,4.000000,4.000000,4.000000,1.000000,4.000000,3.000000,4.000000,4.000000,3.000000,4.000000,4.000000,4.000000,4.000000,14.805692,8.160923,1.541191,0.271137,0.399092,9.373153,5.813617,0.970050,0.268701,0.280831,4.742149,3.430801,0.359026,0.202405,0.167373,3.372524,2.914506,0.261058,0.200901,0.136719,7.406713,1.080672,0.443164,0.412572,0.258963,1.858818,1.515226,0.798140,0.263784,0.253532,4.674239,5.239462,2.874473,0.494267,0.294076,5.570158,7.177343,4.001837,0.744473,0.299183,1.263301,2.053087,0.644456,0.244803,0.285255,5.829075,3.267347,0.732572,0.440959,0.442029,7.831624,3.127722,1.278551,0.599776,1.295919,6.526489,2.467638,0.897168,0.397557,0.435481,4.795098,3.880300,1.701717,0.800067,0.612850,9.381587,6.046536,1.590699,0.424801,0.524633
1676061364.814730,1676061364.815947,15.000000,0.000000,4277.051270,4271.538574,4292.179688,4298.846191,4287.820313,4288.589844,4278.589844,4287.179688,4287.179688,4274.487305,4437.307617,4472.436035,4367.051270,4404.743652,2783.000000,4.000000,81.000000,,,,0.000000,4.000000,4.000000,4.000000,4.000000,4.000000,4.000000,4.000000,4.000000,4.000000,4.000000,4.000000,4.000000,4.000000,4.000000,100.000000,,,,,,,,,,,,,,,,,,,,,,,,,,,,,,,,,,,,,,,,,,,,,,,,,,,,,,,,,,,,,,,,,,,,,,,,,,,,,,,,,,,,,,
1676061364.822538,1676061364.823656,16.000000,0.000000,4266.153809,4271.410156,4293.717773,4295.769043,4287.692383,4286.922852,4284.358887,4298.333496,4292.179688,4267.307617,4448.974121,4471.282227,4345.897461,4395.256348,0.000000,4.000000,81.000000,,,,0.000000,4.000000,4.000000,4.000000,4.000000,4.000000,4.000000,4.000000,4.000000,4.000000,4.000000,4.000000,4.000000,4.000000,4.000000,100.000000,,,,,,,,,,,,,,,,,,,,,,,,,,,,,,,,,,,,,,,,,,,,,,,,,,,,,,,,,,,,,,,,,,,,,,,,,,,,,,,,,,,,,,
1676061364.830346,1676061364.831564,17.000000,0.000000,4262.051270,4269.487305,4290.769043,4296.025879,4275.000000,4289.102539,4285.897461,4297.692383,4294.871582,4271.538574,4440.897461,4463.974121,4351.282227,4386.410156,0.000000,4.000000,81.000000,,,,0.000000,4.000000,4.000000,4.000000,4.000000,4.000000,4.000000,4.000000,4.000000,4.000000,4.000000,4.000000,4.000000,4.000000,4.000000,100.000000,,,,,,,,,,,,,,,,,,,,,,,,,,,,,,,,,,,,,,,,,,,,,,,,,,,,,,,,,,,,,,,,,,,,,,,,,,,,,,,,,,,,,,
1676061364.838155,1676061364.839372,18.000000,0.000000,4268.589844,4269.487305,4284.615234,4297.948730,4284.358887,4294.615234,4285.128418,4289.487305,4291.666504,4276.922852,4419.615234,4458.717773,4368.717773,4386.922852,0.000000,4.000000,81.000000,,,,0.000000,4.000000,4.000000,4.000000,4.000000,4.000000,4.000000,4.000000,4.000000,4.000000,4.000000,4.000000,4.000000,4.000000,4.000000,100.000000,,,,,,,,,,,,,,,,,,,,,,,,,,,,,,,,,,,,,,,,,,,,,,,,,,,,,,,,,,,,,,,,,,,,,,,,,,,,,,,,,,,,,,
1676061364.845963,1676061364.847281,19.000000,0.000000,4272.692383,4271.153809,4286.153809,4301.794922,4298.077148,4291.666504,4278.461426,4286.538574,4288.333496,4275.128418,4407.563965,4454.487305,4364.615234,4389.102539,0.000000,4.000000,81.000000,,,,0.000000,4.000000,4.000000,4.000000,4.000000,4.000000,4.000000,4.000000,4.000000,4.000000,4.000000,4.000000,4.000000,4.000000,4.000000,100.000000,,,,,,,,,,,,,,,,,,,,,,,,,,,,,,,,,,,,,,,,,,,,,,,,,,,,,,,,,,,,,,,,,,,,,,,,,,,,,,,,,,,,,,
1676061364.853771,1676061364.855089,20.000000,0.000000,4270.384766,4277.436035,4295.000000,4304.615234,4290.128418,4285.769043,4271.153809,4286.282227,4283.333496,4256.282227,4429.743652,4457.692383,4343.717773,4390.000000,0.000000,4.000000,81.000000,,,,0.000000,4.000000,4.000000,4.000000,4.000000,4.000000,4.000000,4.000000,4.000000,4.000000,4.000000,4.000000,4.000000,4.000000,4.000000,100.000000,,,,,,,,,,,,,,,,,,,,,,,,,,,,,,,,,,,,,,,,,,,,,,,,,,,,,,,,,,,,,,,,,,,,,,,,,,,,,,,,,,,,,,
1676061364.861580,1676061364.862998,21.000000,0.000000,4282.948730,4289.487305,4305.512695,4310.897461,4285.128418,4290.000000,4276.282227,4279.358887,4278.077148,4242.051270,4454.102539,4465.000000,4342.820313,4394.487305,0.000000,4.000000,81.000000,,,,0.000000,4.000000,4.000000,4.000000,4.000000,4.000000,4.000000,4.000000,4.000000,4.000000,4.000000,4.000000,4.000000,4.000000,4.000000,100.000000,,,,,,,,,,,,,,,,,,,,,,,,,,,,,,,,,,,,,,,,,,,,,,,,,,,,,,,,,,,,,,,,,,,,,,,,,,,,,,,,,,,,,,
1676061364.869388,1676061364.870806,22.000000,0.000000,4304.230957,4297.051270,4312.179688,4321.153809,4293.077148,4298.974121,4285.256348,4273.077148,4280.512695,4257.051270,4439.230957,4465.641113,4362.436035,4402.307617,0.000000,4.000000,81.000000,,,,0.000000,4.000000,4.000000,4.000000,4.000000,4.000000,4.000000,4.000000,4.000000,4.000000,4.000000,4.000000,4.000000,4.000000,4.000000,100.000000,,,,,,,,,,,,,,,,,,,,,,,,,,,,,,,,,,,,,,,,,,,,,,,,,,,,,,,,,,,,,,,,,,,,,,,,,,,,,,,,,,,,,,
1676061364.877197,1676061364.878714,23.000000,0.000000,4310.512695,4299.871582,4311.666504,4323.333496,4303.461426,4301.666504,4281.025879,4277.307617,4285.512695,4272.948730,4421.922852,4467.948730,4372.179688,4412.179688,0.000000,4.000000,81.000000,,,,0.000000,4.000000,4.000000,4.000000,4.000000,4.000000,4.000000,4.000000,4.000000,4.000000,4.000000,4.000000,4.000000,4.000000,4.000000,100.000000,,,,,,,,,,,,,,,,,,,,,,,,,,,,,,,,,,,,,,,,,,,,,,,,,,,,,,,,,,,,,,,,,,,,,,,,,,,,,,,,,,,,,,
1676061364.885005,1676061364.886523,24.000000,0.000000,4305.769043,4300.384766,4310.641113,4317.436035,4302.692383,4294.871582,4271.410156,4283.461426,4287.179688,4266.025879,4431.922852,4474.871582,4367.179688,4416.666504,0.000000,4.000000,81.000000,,,,0.000000,4.000000,4.000000,4.000000,4.000000,4.000000,4.000000,4.000000,4.000000,4.000000,4.000000,4.000000,4.000000,4.000000,4.000000,100.000000,,,,,,,,,,,,,,,,,,,,,,,,,,,,,,,,,,,,,,,,,,,,,,,,,,,,,,,,,,,,,,,,,,,,,,,,,,,,,,,,,,,,,,
1676061364.892813,1676061364.894431,25.000000,0.000000,4304.615234,4298.461426,4313.717773,4311.794922,4288.589844,4293.333496,4280.384766,4290.384766,4295.128418,4269.102539,4447.051270,4476.025879,4368.846191,4414.743652,0.000000,4.000000,81.000000,,,,0.000000,4.000000,4.000000,4.000000,4.000000,4.000000,4.000000,4.000000,4.000000,4.000000,4.000000,4.000000,4.000000,4.000000,4.000000,100.000000,,,,,,,,,,,,,,,,,,,,,,,,,,,,,,,,,,,,,,,,,,,,,,,,,,,,,,,,,,,,,,,,,,,,,,,,,,,,,,,,,,,,,,
1676061364.900622,1676061364.902240,26.000000,0.000000,4302.051270,4287.948730,4309.102539,4307.436035,4280.000000,4305.000000,4298.589844,4302.948730,4304.487305,4290.384766,4446.410156,4477.436035,4367.179688,4413.974121,0.000000,4.000000,81.000000,,,,0.000000,4.000000,4.000000,4.000000,4.000000,4.000000,4.000000,4.000000,4.000000,4.000000,4.000000,4.000000,4.000000,4.000000,4.000000,100.000000,,,,,,,,,,,,,,,,,,,,,,,,,,,,,,,,,,,,,,,,,,,,,,,,,,,,,,,,,,,,,,,,,,,,,,,,,,,,,,,,,,,,,,
1676061364.908430,1676061364.909948,27.000000,0.000000,4295.512695,4276.025879,4297.692383,4308.077148,4292.692383,4313.205078,4300.769043,4315.000000,4301.025879,4299.358887,4450.512695,4487.563965,4361.666504,4424.871582,0.000000,4.000000,81.000000,,,,0.000000,4.000000,4.000000,4.000000,4.000000,4.000000,4.000000,4.000000,4.000000,4.000000,4.000000,4.000000,4.000000,4.000000,4.000000,100.000000,,,,,,,,,,,,,,,,,,,,,,,,,,,,,,,,,,,,,,,,,,,,,,,,,,,,,,,,,,,,,,,,,,,,,,,,,,,,,,,,,,,,,,
1676061364.916238,1676061364.917757,28.000000,0.000000,4287.307617,4271.410156,4293.717773,4309.230957,4304.615234,4306.666504,4291.025879,4314.615234,4292.563965,4290.897461,4455.641113,4486.282227,4371.538574,4431.794922,0.000000,4.000000,81.000000,,,,0.000000,4.000000,4.000000,4.000000,4.000000,4.000000,4.000000,4.000000,4.000000,4.000000,4.000000,4.000000,4.000000,4.000000,4.000000,100.000000,,,,,,,,,,,,,,,,,,,,,,,,,,,,,,,,,,,,,,,,,,,,,,,,,,,,,,,,,,,,,,,,,,,,,,,,,,,,,,,,,,,,,,
1676061364.924047,1676061364.925465,29.000000,0.000000,4282.436035,4273.717773,4294.230957,4300.897461,4293.333496,4294.615234,4290.512695,4302.820313,4292.563965,4279.487305,4441.922852,4469.615234,4375.384766,4414.871582,0.000000,4.000000,81.000000,,,,0.000000,4.000000,4.000000,4.000000,4.000000,4.000000,4.000000,4.000000,4.000000,4.000000,4.000000,4.000000,4.000000,4.000000,4.000000,100.000000,,,,,,,,,,,,,,,,,,,,,,,,,,,,,,,,,,,,,,,,,,,,,,,,,,,,,,,,,,,,,,,,,,,,,,,,,,,,,,,,,,,,,,
1676061364.931855,1676061364.933274,30.000000,0.000000,4291.666504,4283.205078,4294.615234,4299.230957,4284.102539,4293.077148,4295.128418,4291.410156,4291.538574,4280.128418,4425.769043,4466.153809,4367.436035,4403.205078,0.000000,4.000000,81.000000,,,,0.000000,4.000000,4.000000,4.000000,4.000000,4.000000,4.000000,4.000000,4.000000,4.000000,4.000000,4.000000,4.000000,4.000000,4.000000,100.000000,,,,,,,,,,,,,,,,,12.577047,10.486609,1.806911,0.303148,0.413675,7.725792,6.809111,1.115805,0.268001,0.303558,4.287078,4.109819,0.363598,0.190845,0.185769,2.842464,3.432089,0.272293,0.208637,0.132894,5.977992,1.199034,0.508192,0.410072,0.226896,1.653308,1.211127,0.888595,0.207278,0.261381,4.249739,3.851792,3.109443,0.401142,0.320462,5.613344,5.262515,4.015810,0.614730,0.306629,1.185582,1.632197,0.630634,0.251644,0.254100,5.288100,2.367191,0.684377,0.495020,0.385743,7.504752,3.576806,1.106714,0.537915,1.146882,6.411943,2.689182,0.797588,0.374943,0.426803,4.572244,4.488328,1.671592,0.730534,0.554928,8.384152,8.234636,1.620957,0.456919,0.485421
1676061364.939664,1676061364.940982,31.000000,0.000000,4304.102539,4288.461426,4295.897461,4310.769043,4290.641113,4298.717773,4286.538574,4286.794922,4281.410156,4278.846191,4427.051270,4471.410156,4370.128418,4417.692383,0.000000,4.000000,81.000000,,,,0.000000,4.000000,4.000000,4.000000,4.000000,4.000000,4.000000,4.000000,4.000000,4.000000,4.000000,4.000000,4.000000,4.000000,4.000000,100.000000,,,,,,,,,,,,,,,,,,,,,,,,,,,,,,,,,,,,,,,,,,,,,,,,,,,,,,,,,,,,,,,,,,,,,,,,,,,,,,,,,,,,,,
1676061364.947472,1676061364.948791,32.000000,0.000000,4302.307617,4285.897461,4296.538574,4313.461426,4289.358887,4291.025879,4272.692383,4280.769043,4273.974121,4262.436035,4441.282227,4466.922852,4369.743652,4430.384766,0.000000,4.000000,81.000000,,,,0.000000,4.000000,4.000000,4.000000,4.000000,4.000000,4.000000,4.000000,4.000000,4.000000,4.000000,4.000000,4.000000,4.000000,4.000000,100.000000,,,,,,,,,,,,,,,,,,,,,,,,,,,,,,,,,,,,,,,,,,,,,,,,,,,,,,,,,,,,,,,,,,,,,,,,,,,,,,,,,,,,,,
1676061364.955280,1676061364.956499,33.000000,0.000000,4293.589844,4286.538574,4297.820313,4306.410156,4272.692383,4275.384766,4265.769043,4262.820313,4273.205078,4247.307617,4431.794922,4459.871582,4352.307617,4419.743652,0.000000,4.000000,81.000000,,,,0.000000,4.000000,4.000000,4.000000,4.000000,4.000000,4.000000,4.000000,4.000000,4.000000,4.000000,4.000000,4.000000,4.000000,4.000000,100.000000,,,,,,,,,,,,,,,,,,,,,,,,,,,,,,,,,,,,,,,,,,,,,,,,,,,,,,,,,,,,,,,,,,,,,,,,,,,,,,,,,,,,,,
1676061364.963089,1676061364.964308,34.000000,0.000000,4293.205078,4286.922852,4296.410156,4301.794922,4269.743652,4273.077148,4258.461426,4244.871582,4271.794922,4244.871582,4404.743652,4450.128418,4346.666504,4408.461426,0.000000,4.000000,81.000000,,,,0.000000,4.000000,4.000000,4.000000,4.000000,4.000000,4.000000,4.000000,4.000000,4.000000,4.000000,4.000000,4.000000,4.000000,4.000000,100.000000,,,,,,,,,,,,,,,,,,,,,,,,,,,,,,,,,,,,,,,,,,,,,,,,,,,,,,,,,,,,,,,,,,,,,,,,,,,,,,,,,,,,,,
1676061364.970897,1676061364.972016,35.000000,0.000000,4299.615234,4280.769043,4297.179688,4302.179688,4285.256348,4279.871582,4251.922852,4246.538574,4273.333496,4247.948730,4403.077148,4448.077148,4359.230957,4415.384766,0.000000,4.000000,81.000000,,,,0.000000,4.000000,4.000000,4.000000,4.000000,4.000000,4.000000,4.000000,4.000000,4.000000,4.000000,4.000000,4.000000,4.000000,4.000000,100.000000,,,,,,,,,,,,,,,,,,,,,,,,,,,,,,,,,,,,,,,,,,,,,,,,,,,,,,,,,,,,,,,,,,,,,,,,,,,,,,,,,,,,,,
1676061364.978706,1676061364.979825,36.000000,0.000000,4304.230957,4280.769043,4306.153809,4307.179688,4292.051270,4283.717773,4262.307617,4271.922852,4283.974121,4260.000000,4438.333496,4468.205078,4368.205078,4436.538574,0.000000,4.000000,81.000000,,,,0.000000,4.000000,4.000000,4.000000,4.000000,4.000000,4.000000,4.000000,4.000000,4.000000,4.000000,4.000000,4.000000,4.000000,4.000000,100.000000,,,,,,,,,,,,,,,,,,,,,,,,,,,,,,,,,,,,,,,,,,,,,,,,,,,,,,,,,,,,,,,,,,,,,,,,,,,,,,,,,,,,,,
1676061364.986514,1676061364.987533,37.000000,0.000000,4291.153809,4276.282227,4306.666504,4302.051270,4276.153809,4286.153809,4283.846191,4294.743652,4292.179688,4267.563965,4460.384766,4480.000000,4361.410156,4438.461426,0.000000,4.000000,81.000000,,,,0.000000,4.000000,4.000000,4.000000,4.000000,4.000000,4.000000,4.000000,4.000000,4.000000,4.000000,4.000000,4.000000,4.000000,4.000000,100.000000,,,,,,,,,,,,,,,,,,,,,,,,,,,,,,,,,,,,,,,,,,,,,,,,,,,,,,,,,,,,,,,,,,,,,,,,,,,,,,,,,,,,,,
1676061364.994322,1676061364.995342,38.000000,0.000000,4267.563965,4254.358887,4289.358887,4283.717773,4256.922852,4290.512695,4293.333496,4297.563965,4292.692383,4258.717773,4438.205078,4465.512695,4344.743652,4410.641113,0.000000,4.000000,81.000000,,,,0.000000,4.000000,4.000000,4.000000,4.000000,4.000000,4.000000,4.000000,4.000000,4.000000,4.000000,4.000000,4.000000,4.000000,4.000000,100.000000,,,,,,,,,,,,,,,,,,,,,,,,,,,,,,,,,,,,,,,,,,,,,,,,,,,,,,,,,,,,,,,,,,,,,,,,,,,,,,,,,,,,,,
1676061365.002131,1676061365.003050,39.000000,0.000000,4257.307617,4236.666504,4277.563965,4277.563965,4254.102539,4295.000000,4291.410156,4296.025879,4292.307617,4257.692383,4411.410156,4459.102539,4340.641113,4397.436035,0.000000,4.000000,81.000000,,,,0.000000,4.000000,4.000000,4.000000,4.000000,4.000000,4.000000,4.000000,4.000000,4.000000,4.000000,4.000000,4.000000,4.000000,4.000000,100.000000,,,,,,,,,,,,,,,,,,,,,,,,,,,,,,,,,,,,,,,,,,,,,,,,,,,,,,,,,,,,,,,,,,,,,,,,,,,,,,,,,,,,,,
1676061365.009939,1676061365.010859,40.000000,0.000000,4255.897461,4237.692383,4280.000000,4286.538574,4257.179688,4294.615234,4289.102539,4299.230957,4289.871582,4266.153809,4412.179688,4463.846191,4348.205078,4405.512695,0.000000,4.000000,81.000000,,,,0.000000,4.000000,4.000000,4.000000,4.000000,4.000000,4.000000,4.000000,4.000000,4.000000,4.000000,4.000000,4.000000,4.000000,4.000000,100.000000,,,,,,,,,,,,,,,,,,,,,,,,,,,,,,,,,,,,,,,,,,,,,,,,,,,,,,,,,,,,,,,,,,,,,,,,,,,,,,,,,,,,,,
1676061365.017748,1676061365.018567,41.000000,0.000000,4248.717773,4243.846191,4281.025879,4286.282227,4257.307617,4285.512695,4282.563965,4292.307617,4283.846191,4260.641113,4418.717773,4454.487305,4346.153809,4395.384766,0.000000,4.000000,81.000000,,,,0.000000,4.000000,4.000000,4.000000,4.000000,4.000000,4.000000,4.000000,4.000000,4.000000,4.000000,4.000000,4.000000,4.000000,4.000000,100.000000,,,,,,,,,,,,,,,,,,,,,,,,,,,,,,,,,,,,,,,,,,,,,,,,,,,,,,,,,,,,,,,,,,,,,,,,,,,,,,,,,,,,,,
1676061365.025556,1676061365.026376,42.000000,0.000000,4247.307617,4249.230957,4278.205078,4280.384766,4261.153809,4277.307617,4266.538574,4269.487305,4276.282227,4243.077148,4412.948730,4448.589844,4337.436035,4379.102539,0.000000,4.000000,81.000000,,,,0.000000,4.000000,4.000000,4.000000,4.000000,4.000000,4.000000,4.000000,4.000000,4.000000,4.000000,4.000000,4.000000,4.000000,4.000000,100.000000,,,,,,,,,,,,,,,,,,,,,,,,,,,,,,,,,,,,,,,,,,,,,,,,,,,,,,,,,,,,,,,,,,,,,,,,,,,,,,,,,,,,,,
1676061365.033364,1676061365.034084,43.000000,0.000000,4261.666504,4254.358887,4279.743652,4286.666504,4261.538574,4273.205078,4249.871582,4248.589844,4270.000000,4230.000000,4415.000000,4456.153809,4336.794922,4395.897461,0.000000,4.000000,81.000000,,,,0.000000,4.000000,4.000000,4.000000,4.000000,4.000000,4.000000,4.000000,4.000000,4.000000,4.000000,4.000000,4.000000,4.000000,4.000000,100.000000,,,,,,,,,,,,,,,,,,,,,,,,,,,,,,,,,,,,,,,,,,,,,,,,,,,,,,,,,,,,,,,,,,,,,,,,,,,,,,,,,,,,,,
1676061365.041173,1676061365.041893,44.000000,0.000000,4277.307617,4262.307617,4289.102539,4302.436035,4252.563965,4268.077148,4244.743652,4250.512695,4270.897461,4232.051270,4430.512695,4465.128418,4349.871582,4427.179688,0.000000,4.000000,81.000000,,,,0.000000,4.000000,4.000000,4.000000,4.000000,4.000000,4.000000,4.000000,4.000000,4.000000,4.000000,4.000000,4.000000,4.000000,4.000000,100.000000,,,,,,,,,,,,,,,,,,,,,,,,,,,,,,,,,,,,,,,,,,,,,,,,,,,,,,,,,,,,,,,,,,,,,,,,,,,,,,,,,,,,,,
1676061365.048981,1676061365.049601,45.000000,0.000000,4285.641113,4278.461426,4298.717773,4307.948730,4253.205078,4261.794922,4246.794922,4259.615234,4271.410156,4242.563965,4439.102539,4469.743652,4368.717773,4435.256348,0.000000,4.000000,81.000000,,,,0.000000,4.000000,4.000000,4.000000,4.000000,4.000000,4.000000,4.000000,4.000000,4.000000,4.000000,4.000000,4.000000,4.000000,4.000000,100.000000,,,,,,,,,,,,,,,,,,,,,,,,,,,,,,,,,,,,,,,,,,,,,,,,,,,,,,,,,,,,,,,,,,,,,,,,,,,,,,,,,,,,,,
1676061365.056789,1676061365.057509,46.000000,0.000000,4290.000000,4292.948730,4303.461426,4300.641113,4267.307617,4260.000000,4246.153809,4252.692383,4268.589844,4241.666504,4433.717773,4470.128418,4373.717773,4427.179688,0.000000,4.000000,81.000000,,,,0.000000,4.000000,4.000000,4.000000,4.000000,4.000000,4.000000,4.000000,4.000000,4.000000,4.000000,4.000000,4.000000,4.000000,4.000000,100.000000,,,,,,,,,,,,,,,,,11.343148,13.955470,1.848132,0.333606,0.413084,6.879732,8.688552,1.126203,0.273881,0.314547,4.074135,5.198452,0.333616,0.173952,0.204503,2.551810,4.256206,0.268227,0.211637,0.145788,5.273876,1.479174,0.560910,0.415900,0.211095,1.758430,1.077677,0.894314,0.158728,0.262627,4.361259,2.715718,3.011278,0.309793,0.335946,6.405178,3.953593,3.718326,0.487337,0.318887,1.340488,1.432323,0.584121,0.261106,0.214406,5.769369,1.675068,0.590801,0.525069,0.329585,8.131814,4.251079,0.875775,0.518920,0.974405,6.951141,3.118900,0.643127,0.338289,0.391556,5.250426,5.552190,1.537529,0.677328,0.509428,8.684634,11.435369,1.489884,0.474499,0.434832
1676061365.064598,1676061365.065318,47.000000,0.000000,4292.179688,4291.922852,4302.563965,4300.641113,4266.025879,4265.128418,4245.384766,4246.922852,4274.358887,4237.179688,4423.589844,4466.153809,4368.717773,4425.641113,0.000000,4.000000,81.000000,,,,0.000000,4.000000,4.000000,4.000000,4.000000,4.000000,4.000000,4.000000,4.000000,4.000000,4.000000,4.000000,4.000000,4.000000,4.000000,100.000000,,,,,,,,,,,,,,,,,,,,,,,,,,,,,,,,,,,,,,,,,,,,,,,,,,,,,,,,,,,,,,,,,,,,,,,,,,,,,,,,,,,,,,
1676061365.072406,1676061365.073226,48.000000,0.000000,4280.897461,4274.102539,4295.897461,4305.384766,4253.846191,4270.128418,4249.743652,4255.641113,4278.717773,4241.538574,4418.461426,4460.512695,4359.615234,4426.153809,0.000000,4.000000,81.000000,,,,0.000000,4.000000,4.000000,4.000000,4.000000,4.000000,4.000000,4.000000,4.000000,4.000000,4.000000,4.000000,4.000000,4.000000,4.000000,100.000000,,,,,,,,,,,,,,,,,,,,,,,,,,,,,,,,,,,,,,,,,,,,,,,,,,,,,,,,,,,,,,,,,,,,,,,,,,,,,,,,,,,,,,
1676061365.080215,1676061365.081035,49.000000,0.000000,4260.512695,4259.615234,4289.743652,4296.538574,4263.333496,4275.000000,4265.128418,4269.358887,4275.897461,4242.692383,4419.487305,4455.769043,4344.230957,4410.641113,0.000000,4.000000,81.000000,,,,0.000000,4.000000,4.000000,4.000000,4.000000,4.000000,4.000000,4.000000,4.000000,4.000000,4.000000,4.000000,4.000000,4.000000,4.000000,100.000000,,,,,,,,,,,,,,,,,,,,,,,,,,,,,,,,,,,,,,,,,,,,,,,,,,,,,,,,,,,,,,,,,,,,,,,,,,,,,,,,,,,,,,
1676061365.088023,1676061365.088943,50.000000,0.000000,4246.153809,4252.563965,4286.666504,4279.871582,4270.512695,4283.077148,4282.692383,4280.384766,4281.922852,4238.846191,4413.461426,4449.102539,4331.025879,4382.436035,0.000000,4.000000,81.000000,,,,0.000000,4.000000,4.000000,4.000000,4.000000,4.000000,4.000000,4.000000,4.000000,4.000000,4.000000,4.000000,4.000000,4.000000,4.000000,100.000000,,,,,,,,,,,,,,,,,,,,,,,,,,,,,,,,,,,,,,,,,,,,,,,,,,,,,,,,,,,,,,,,,,,,,,,,,,,,,,,,,,,,,,
1676061365.095831,1676061365.096752,51.000000,0.000000,4231.282227,4236.666504,4271.153809,4270.000000,4249.487305,4287.948730,4283.717773,4280.897461,4290.256348,4239.487305,4396.794922,4442.948730,4321.922852,4361.282227,0.000000,4.000000,81.000000,,,,0.000000,4.000000,4.000000,4.000000,4.000000,4.000000,4.000000,4.000000,4.000000,4.000000,4.000000,4.000000,4.000000,4.000000,4.000000,100.000000,,,,,,,,,,,,,,,,,,,,,,,,,,,,,,,,,,,,,,,,,,,,,,,,,,,,,,,,,,,,,,,,,,,,,,,,,,,,,,,,,,,,,,
1676061365.103640,1676061365.104660,52.000000,0.000000,4212.948730,4220.128418,4252.179688,4268.333496,4234.871582,4281.153809,4268.333496,4263.846191,4279.871582,4236.922852,4381.794922,4432.051270,4308.333496,4351.282227,0.000000,4.000000,81.000000,,,,0.000000,4.000000,4.000000,4.000000,4.000000,4.000000,4.000000,4.000000,4.000000,4.000000,4.000000,4.000000,4.000000,4.000000,4.000000,100.000000,,,,,,,,,,,,,,,,,,,,,,,,,,,,,,,,,,,,,,,,,,,,,,,,,,,,,,,,,,,,,,,,,,,,,,,,,,,,,,,,,,,,,,
1676061365.111448,1676061365.112468,53.000000,0.000000,4211.794922,4222.307617,4257.948730,4274.871582,4247.051270,4275.256348,4262.820313,4257.948730,4271.666504,4234.487305,4384.358887,4425.897461,4311.410156,4353.717773,0.000000,4.000000,81.000000,,,,0.000000,4.000000,4.000000,4.000000,4.000000,4.000000,4.000000,4.000000,4.000000,4.000000,4.000000,4.000000,4.000000,4.000000,4.000000,100.000000,,,,,,,,,,,,,,,,,,,,,,,,,,,,,,,,,,,,,,,,,,,,,,,,,,,,,,,,,,,,,,,,,,,,,,,,,,,,,,,,,,,,,,
1676061365.119256,1676061365.120177,54.000000,0.000000,4220.641113,4228.589844,4271.410156,4277.436035,4250.769043,4274.615234,4266.538574,4265.512695,4280.128418,4234.487305,4393.205078,4434.230957,4326.025879,4356.538574,0.000000,4.000000,81.000000,,,,0.000000,4.000000,4.000000,4.000000,4.000000,4.000000,4.000000,4.000000,4.000000,4.000000,4.000000,4.000000,4.000000,4.000000,4.000000,100.000000,,,,,,,,,,,,,,,,,,,,,,,,,,,,,,,,,,,,,,,,,,,,,,,,,,,,,,,,,,,,,,,,,,,,,,,,,,,,,,,,,,,,,,
1676061365.127065,1676061365.127985,55.000000,0.000000,4226.666504,4233.974121,4272.051270,4277.051270,4241.666504,4273.077148,4261.153809,4257.692383,4282.307617,4226.282227,4396.410156,4442.692383,4315.641113,4356.282227,0.000000,4.000000,81.000000,,,,0.000000,4.000000,4.000000,4.000000,4.000000,4.000000,4.000000,4.000000,4.000000,4.000000,4.000000,4.000000,4.000000,4.000000,4.000000,100.000000,,,,,,,,,,,,,,,,,,,,,,,,,,,,,,,,,,,,,,,,,,,,,,,,,,,,,,,,,,,,,,,,,,,,,,,,,,,,,,,,,,,,,,
1676061365.134873,1676061365.135694,56.000000,0.000000,4241.410156,4251.410156,4275.000000,4286.538574,4247.948730,4267.948730,4246.410156,4239.358887,4268.461426,4218.974121,4402.948730,4443.974121,4303.077148,4368.461426,0.000000,4.000000,81.000000,,,,0.000000,4.000000,4.000000,4.000000,4.000000,4.000000,4.000000,4.000000,4.000000,4.000000,4.000000,4.000000,4.000000,4.000000,4.000000,100.000000,,,,,,,,,,,,,,,,,,,,,,,,,,,,,,,,,,,,,,,,,,,,,,,,,,,,,,,,,,,,,,,,,,,,,,,,,,,,,,,,,,,,,,
1676061365.142681,1676061365.143502,57.000000,0.000000,4267.179688,4275.641113,4291.538574,4301.666504,4263.205078,4261.666504,4239.102539,4238.461426,4261.282227,4231.025879,4412.051270,4451.666504,4328.333496,4397.436035,0.000000,4.000000,81.000000,,,,0.000000,4.000000,4.000000,4.000000,4.000000,4.000000,4.000000,4.000000,4.000000,4.000000,4.000000,4.000000,4.000000,4.000000,4.000000,100.000000,,,,,,,,,,,,,,,,,,,,,,,,,,,,,,,,,,,,,,,,,,,,,,,,,,,,,,,,,,,,,,,,,,,,,,,,,,,,,,,,,,,,,,
1676061365.150490,1676061365.151211,58.000000,0.000000,4286.153809,4290.769043,4304.487305,4309.743652,4263.205078,4260.128418,4244.230957,4249.487305,4268.077148,4237.948730,4410.128418,4461.410156,4365.256348,4416.794922,0.000000,4.000000,81.000000,,,,0.000000,4.000000,4.000000,4.000000,4.000000,4.000000,4.000000,4.000000,4.000000,4.000000,4.000000,4.000000,4.000000,4.000000,4.000000,100.000000,,,,,,,,,,,,,,,,,,,,,,,,,,,,,,,,,,,,,,,,,,,,,,,,,,,,,,,,,,,,,,,,,,,,,,,,,,,,,,,,,,,,,,
1676061365.158298,1676061365.159019,59.000000,0.000000,4294.615234,4299.615234,4307.179688,4315.512695,4262.179688,4262.948730,4250.000000,4247.820313,4269.743652,4232.436035,4413.333496,4462.307617,4370.384766,4422.051270,0.000000,4.000000,81.000000,,,,0.000000,4.000000,4.000000,4.000000,4.000000,4.000000,4.000000,4.000000,4.000000,4.000000,4.000000,4.000000,4.000000,4.000000,4.000000,100.000000,,,,,,,,,,,,,,,,,,,,,,,,,,,,,,,,,,,,,,,,,,,,,,,,,,,,,,,,,,,,,,,,,,,,,,,,,,,,,,,,,,,,,,
1676061365.166107,1676061365.166728,60.000000,0.000000,4296.538574,4303.077148,4304.743652,4318.974121,4267.179688,4260.641113,4245.128418,4241.153809,4265.641113,4231.666504,4432.563965,4465.384766,4346.410156,4430.769043,0.000000,4.000000,81.000000,1,1,1,0.000000,4.000000,4.000000,4.000000,4.000000,4.000000,4.000000,4.000000,4.000000,4.000000,4.000000,4.000000,4.000000,4.000000,4.000000,100.000000,,,,,,,,,,,,,,,,,,,,,,,,,,,,,,,,,,,,,,,,,,,,,,,,,,,,,,,,,,,,,,,,,,,,,,,,,,,,,,,,,,,,,,
1676061365.173915,1676061365.174636,61.000000,0.000000,4288.461426,4292.051270,4298.846191,4308.589844,4254.230957,4252.179688,4235.384766,4244.615234,4263.846191,4229.743652,4431.538574,4461.410156,4337.563965,4428.589844,0.000000,4.000000,81.000000,,,,0.000000,4.000000,4.000000,4.000000,4.000000,4.000000,4.000000,4.000000,4.000000,4.000000,4.000000,4.000000,4.000000,4.000000,4.000000,100.000000,,,,,,,,,,,,,,,,,,,,,,,,,,,,,,,,,,,,,,,,,,,,,,,,,,,,,,,,,,,,,,,,,,,,,,,,,,,,,,,,,,,,,,
1676061365.181723,1676061365.182445,62.000000,0.000000,4269.230957,4271.282227,4289.487305,4290.256348,4237.820313,4254.615234,4239.615234,4252.307617,4266.153809,4225.256348,4405.384766,4446.666504,4352.692383,4408.205078,0.000000,4.000000,81.000000,,,,0.000000,4.000000,4.000000,4.000000,4.000000,4.000000,4.000000,4.000000,4.000000,4.000000,4.000000,4.000000,4.000000,4.000000,4.000000,100.000000,,,,,,,,,,,,,,,,,11.661219,17.732965,1.642317,0.350036,0.400500,7.249876,10.850286,0.991814,0.277659,0.310787,4.299460,6.468491,0.277944,0.154488,0.219536,2.653430,5.160932,0.255317,0.205729,0.167566,5.671413,1.807337,0.576746,0.412648,0.209736,2.250949,1.117017,0.807804,0.127318,0.256181,5.131514,1.934004,2.599374,0.237163,0.340204,8.004668,3.316429,3.156328,0.389852,0.333916,1.724878,1.438464,0.521721,0.274268,0.177877,7.284410,1.343458,0.481918,0.520644,0.288756,9.798982,5.062879,0.649124,0.522598,0.832260,8.273163,3.740606,0.477431,0.293657,0.339899,6.822676,6.824348,1.319808,0.644088,0.490821,10.368997,14.977049,1.223466,0.458279,0.383217
1676061365.189532,1676061365.190253,63.000000,0.000000,4247.820313,4252.948730,4272.563965,4275.641113,4235.384766,4266.922852,4257.051270,4255.000000,4275.384766,4228.974121,4388.461426,4443.717773,4351.153809,4388.589844,0.000000,4.000000,81.000000,,,,0.000000,4.000000,4.000000,4.000000,4.000000,4.000000,4.000000,4.000000,4.000000,4.000000,4.000000,4.000000,4.000000,4.000000,4.000000,100.000000,,,,,,,,,,,,,,,,,,,,,,,,,,,,,,,,,,,,,,,,,,,,,,,,,,,,,,,,,,,,,,,,,,,,,,,,,,,,,,,,,,,,,,
1676061365.197340,1676061365.198062,64.000000,0.000000,4233.205078,4236.410156,4260.769043,4270.256348,4232.563965,4272.436035,4262.051270,4256.538574,4279.102539,4231.666504,4384.487305,4443.077148,4330.128418,4378.205078,2085.000000,4.000000,81.000000,,,,0.000000,4.000000,4.000000,4.000000,4.000000,4.000000,4.000000,4.000000,4.000000,4.000000,4.000000,4.000000,4.000000,4.000000,4.000000,100.000000,,,,,,,,,,,,,,,,,,,,,,,,,,,,,,,,,,,,,,,,,,,,,,,,,,,,,,,,,,,,,,,,,,,,,,,,,,,,,,,,,,,,,,
1676061365.205149,1676061365.205870,65.000000,0.000000,4216.666504,4213.974121,4259.230957,4265.256348,4225.000000,4269.358887,4252.948730,4262.436035,4271.025879,4219.743652,4389.230957,4434.102539,4315.897461,4370.384766,2074.000000,4.000000,81.000000,,,,0.000000,4.000000,4.000000,4.000000,4.000000,4.000000,4.000000,4.000000,4.000000,4.000000,4.000000,4.000000,4.000000,4.000000,4.000000,100.000000,,,,,,,,,,,,,,,,,,,,,,,,,,,,,,,,,,,,,,,,,,,,,,,,,,,,,,,,,,,,,,,,,,,,,,,,,,,,,,,,,,,,,,
1676061365.212957,1676061365.213579,66.000000,0.000000,4206.666504,4207.307617,4261.025879,4260.769043,4223.846191,4265.897461,4253.077148,4262.563965,4269.743652,4215.641113,4405.641113,4434.743652,4312.820313,4371.282227,2453.000000,4.000000,81.000000,,,,0.000000,4.000000,4.000000,4.000000,4.000000,4.000000,4.000000,4.000000,4.000000,4.000000,4.000000,4.000000,4.000000,4.000000,4.000000,100.000000,,,,,,,,,,,,,,,,,,,,,,,,,,,,,,,,,,,,,,,,,,,,,,,,,,,,,,,,,,,,,,,,,,,,,,,,,,,,,,,,,,,,,,
1676061365.220765,1676061365.221487,67.000000,0.000000,4214.358887,4218.717773,4262.051270,4261.922852,4225.897461,4262.820313,4257.820313,4256.282227,4279.487305,4227.948730,4407.307617,4443.974121,4314.487305,4378.333496,2379.000000,4.000000,81.000000,,,,0.000000,4.000000,4.000000,4.000000,4.000000,4.000000,4.000000,4.000000,4.000000,4.000000,4.000000,4.000000,4.000000,4.000000,4.000000,100.000000,,,,,,,,,,,,,,,,,,,,,,,,,,,,,,,,,,,,,,,,,,,,,,,,,,,,,,,,,,,,,,,,,,,,,,,,,,,,,,,,,,,,,,
1676061365.228574,1676061365.229295,68.000000,0.000000,4225.769043,4223.589844,4267.051270,4267.051270,4230.641113,4261.794922,4249.358887,4251.410156,4277.692383,4241.025879,4388.205078,4444.358887,4324.358887,4382.692383,2471.000000,4.000000,81.000000,,,,0.000000,4.000000,4.000000,4.000000,4.000000,4.000000,4.000000,4.000000,4.000000,4.000000,4.000000,4.000000,4.000000,4.000000,4.000000,100.000000,,,,,,,,,,,,,,,,,,,,,,,,,,,,,,,,,,,,,,,,,,,,,,,,,,,,,,,,,,,,,,,,,,,,,,,,,,,,,,,,,,,,,,
1676061365.236382,1676061365.237204,69.000000,0.000000,4233.589844,4229.358887,4278.333496,4279.743652,4238.846191,4261.410156,4239.230957,4248.205078,4266.025879,4240.000000,4388.205078,4442.179688,4326.794922,4392.563965,2122.000000,4.000000,81.000000,,,,0.000000,4.000000,4.000000,4.000000,4.000000,4.000000,4.000000,4.000000,4.000000,4.000000,4.000000,4.000000,4.000000,4.000000,4.000000,100.000000,,,,,,,,,,,,,,,,,,,,,,,,,,,,,,,,,,,,,,,,,,,,,,,,,,,,,,,,,,,,,,,,,,,,,,,,,,,,,,,,,,,,,,
1676061365.244191,1676061365.245012,70.000000,0.000000,4246.922852,4249.102539,4289.615234,4296.538574,4239.871582,4258.717773,4241.666504,4244.487305,4262.692383,4227.051270,4417.051270,4451.666504,4316.794922,4406.666504,2219.000000,4.000000,81.000000,,,,0.000000,4.000000,4.000000,4.000000,4.000000,4.000000,4.000000,4.000000,4.000000,4.000000,4.000000,4.000000,4.000000,4.000000,4.000000,100.000000,,,,,,,,,,,,,,,,,,,,,,,,,,,,,,,,,,,,,,,,,,,,,,,,,,,,,,,,,,,,,,,,,,,,,,,,,,,,,,,,,,,,,,
1676061365.251999,1676061365.252920,71.000000,0.000000,4262.436035,4268.205078,4298.205078,4305.256348,4242.820313,4258.333496,4250.897461,4242.179688,4268.333496,4219.871582,4428.589844,4462.179688,4324.102539,4414.230957,2324.000000,4.000000,81.000000,,,,0.000000,4.000000,4.000000,4.000000,4.000000,4.000000,4.000000,4.000000,4.000000,4.000000,4.000000,4.000000,4.000000,4.000000,4.000000,100.000000,,,,,,,,,,,,,,,,,,,,,,,,,,,,,,,,,,,,,,,,,,,,,,,,,,,,,,,,,,,,,,,,,,,,,,,,,,,,,,,,,,,,,,
1676061365.259807,1676061365.260729,72.000000,0.000000,4275.641113,4277.692383,4300.000000,4306.153809,4255.384766,4258.589844,4253.333496,4241.922852,4270.512695,4232.051270,4413.717773,4461.538574,4352.948730,4424.743652,1659.000000,4.000000,81.000000,,,,0.000000,4.000000,4.000000,4.000000,4.000000,4.000000,4.000000,4.000000,4.000000,4.000000,4.000000,4.000000,4.000000,4.000000,4.000000,100.000000,,,,,,,,,,,,,,,,,,,,,,,,,,,,,,,,,,,,,,,,,,,,,,,,,,,,,,,,,,,,,,,,,,,,,,,,,,,,,,,,,,,,,,
1676061365.267616,1676061365.268637,73.000000,0.000000,4282.948730,4281.666504,4296.153809,4307.948730,4261.025879,4258.077148,4251.025879,4245.512695,4266.922852,4246.666504,4414.743652,4458.205078,4357.051270,4434.487305,2456.000000,4.000000,81.000000,,,,0.000000,4.000000,4.000000,4.000000,4.000000,4.000000,4.000000,4.000000,4.000000,4.000000,4.000000,4.000000,4.000000,4.000000,4.000000,100.000000,,,,,,,,,,,,,,,,,,,,,,,,,,,,,,,,,,,,,,,,,,,,,,,,,,,,,,,,,,,,,,,,,,,,,,,,,,,,,,,,,,,,,,
1676061365.275424,1676061365.276446,74.000000,0.000000,4274.487305,4273.846191,4294.871582,4302.692383,4257.307617,4261.922852,4261.538574,4262.820313,4268.077148,4238.589844,4430.128418,4460.897461,4330.769043,4424.743652,2528.000000,4.000000,81.000000,,,,0.000000,4.000000,4.000000,4.000000,4.000000,4.000000,4.000000,4.000000,4.000000,4.000000,4.000000,4.000000,4.000000,4.000000,4.000000,100.000000,,,,,,,,,,,,,,,,,,,,,,,,,,,,,,,,,,,,,,,,,,,,,,,,,,,,,,,,,,,,,,,,,,,,,,,,,,,,,,,,,,,,,,
1676061365.283233,1676061365.284354,75.000000,0.000000,4255.769043,4257.948730,4287.436035,4286.282227,4250.641113,4266.794922,4276.153809,4275.384766,4273.717773,4223.205078,4408.717773,4457.820313,4319.871582,4399.743652,2797.000000,4.000000,81.000000,,,,0.000000,4.000000,4.000000,4.000000,4.000000,4.000000,4.000000,4.000000,4.000000,4.000000,4.000000,4.000000,4.000000,4.000000,4.000000,100.000000,,,,,,,,,,,,,,,,,,,,,,,,,,,,,,,,,,,,,,,,,,,,,,,,,,,,,,,,,,,,,,,,,,,,,,,,,,,,,,,,,,,,,,
1676061365.291041,1676061365.292162,76.000000,0.000000,4242.436035,4245.256348,4268.717773,4275.128418,4249.871582,4272.307617,4276.922852,4264.102539,4276.282227,4217.307617,4368.461426,4443.333496,4319.230957,4378.717773,2817.000000,4.000000,81.000000,,,,0.000000,4.000000,4.000000,4.000000,4.000000,4.000000,4.000000,4.000000,4.000000,4.000000,4.000000,4.000000,4.000000,4.000000,4.000000,100.000000,,,,,,,,,,,,,,,,,,,,,,,,,,,,,,,,,,,,,,,,,,,,,,,,,,,,,,,,,,,,,,,,,,,,,,,,,,,,,,,,,,,,,,
1676061365.298849,1676061365.299971,77.000000,0.000000,4233.077148,4232.307617,4255.641113,4273.205078,4250.384766,4278.077148,4271.538574,4253.461426,4272.307617,4211.410156,4366.538574,4430.128418,4300.769043,4370.256348,2626.000000,4.000000,81.000000,,,,0.000000,4.000000,4.000000,4.000000,4.000000,4.000000,4.000000,4.000000,4.000000,4.000000,4.000000,4.000000,4.000000,4.000000,4.000000,100.000000,,,,,,,,,,,,,,,,,,,,,,,,,,,,,,,,,,,,,,,,,,,,,,,,,,,,,,,,,,,,,,,,,,,,,,,,,,,,,,,,,,,,,,
1676061365.306658,1676061365.307779,78.000000,0.000000,4222.563965,4223.717773,4260.000000,4273.461426,4247.307617,4278.205078,4272.692383,4260.000000,4268.717773,4205.256348,4385.641113,4428.846191,4282.692383,4366.025879,2528.000000,4.000000,81.000000,,,,0.000000,4.000000,4.000000,4.000000,4.000000,4.000000,4.000000,4.000000,4.000000,4.000000,4.000000,4.000000,4.000000,4.000000,4.000000,100.000000,1.000000,75.000000,4.000000,4.000000,4.000000,4.000000,3.000000,3.000000,3.000000,3.000000,4.000000,3.000000,4.000000,4.000000,4.000000,3.000000,13.202661,20.789083,1.299904,0.348848,0.380758,8.583470,12.681416,0.783224,0.275122,0.293850,4.841878,7.569136,0.227338,0.136512,0.227577,3.076965,5.886979,0.246012,0.191910,0.189747,6.966580,2.062449,0.546729,0.396049,0.222183,3.015408,1.277329,0.657339,0.113711,0.243963,6.304152,1.600640,2.005082,0.192112,0.336351,9.927963,3.391503,2.473204,0.337230,0.347804,2.210407,1.592446,0.466541,0.286579,0.152646,9.328290,1.430716,0.414366,0.484260,0.273146,11.951298,5.815517,0.502847,0.554644,0.764371,9.989264,4.430234,0.348705,0.254767,0.285427,8.823474,7.925099,1.078532,0.628174,0.503892,12.792972,17.976521,0.935578,0.407094,0.346772
1676061365.314466,1676061365.315488,79.000000,0.000000,4221.410156,4227.948730,4264.871582,4271.025879,4247.051270,4274.358887,4277.563965,4260.641113,4270.897461,4209.487305,4392.436035,4434.102539,4278.589844,4365.384766,2797.000000,4.000000,81.000000,,,,0.000000,4.000000,4.000000,4.000000,4.000000,4.000000,4.000000,4.000000,4.000000,4.000000,4.000000,4.000000,4.000000,4.000000,4.000000,100.000000,,,,,,,,,,,,,,,,,,,,,,,,,,,,,,,,,,,,,,,,,,,,,,,,,,,,,,,,,,,,,,,,,,,,,,,,,,,,,,,,,,,,,,
1676061365.322274,1676061365.323296,80.000000,0.000000,4232.948730,4233.333496,4264.487305,4272.307617,4246.794922,4271.794922,4272.436035,4247.307617,4270.128418,4217.307617,4400.384766,4438.333496,4285.000000,4376.410156,2817.000000,4.000000,81.000000,,,,0.000000,4.000000,4.000000,4.000000,4.000000,4.000000,4.000000,4.000000,4.000000,4.000000,4.000000,4.000000,4.000000,4.000000,4.000000,100.000000,,,,,,,,,,,,,,,,,,,,,,,,,,,,,,,,,,,,,,,,,,,,,,,,,,,,,,,,,,,,,,,,,,,,,,,,,,,,,,,,,,,,,,
1676061365.330083,1676061365.331005,81.000000,0.000000,4244.487305,4235.000000,4270.256348,4285.512695,4246.025879,4268.717773,4258.974121,4238.974121,4261.666504,4223.077148,4409.871582,4439.615234,4301.666504,4394.102539,2626.000000,4.000000,81.000000,,,,0.000000,4.000000,4.000000,4.000000,4.000000,4.000000,4.000000,4.000000,4.000000,4.000000,4.000000,4.000000,4.000000,4.000000,4.000000,100.000000,,,,,,,,,,,,,,,,,,,,,,,,,,,,,,,,,,,,,,,,,,,,,,,,,,,,,,,,,,,,,,,,,,,,,,,,,,,,,,,,,,,,,,
1676061365.337891,1676061365.338813,82.000000,0.000000,4253.205078,4247.179688,4282.820313,4300.256348,4252.820313,4261.410156,4255.897461,4239.615234,4259.487305,4231.025879,4405.000000,4444.230957,4320.128418,4406.794922,2528.000000,4.000000,81.000000,,,,0.000000,4.000000,4.000000,4.000000,4.000000,4.000000,4.000000,4.000000,4.000000,4.000000,4.000000,4.000000,4.000000,4.000000,4.000000,100.000000,,,,,,,,,,,,,,,,,,,,,,,,,,,,,,,,,,,,,,,,,,,,,,,,,,,,,,,,,,,,,,,,,,,,,,,,,,,,,,,,,,,,,,
1676061365.345699,1676061365.346522,83.000000,0.000000,4263.461426,4267.051270,4290.384766,4301.153809,4268.333496,4252.692383,4263.974121,4239.615234,4267.051270,4231.666504,4409.230957,4451.794922,4328.077148,4416.025879,2797.000000,4.000000,81.000000,,,,0.000000,4.000000,4.000000,4.000000,4.000000,4.000000,4.000000,4.000000,4.000000,4.000000,4.000000,4.000000,4.000000,4.000000,4.000000,100.000000,,,,,,,,,,,,,,,,,,,,,,,,,,,,,,,,,,,,,,,,,,,,,,,,,,,,,,,,,,,,,,,,,,,,,,,,,,,,,,,,,,,,,,
1676061365.353508,1676061365.354430,84.000000,0.000000,4267.563965,4270.000000,4289.102539,4296.282227,4265.512695,4251.794922,4266.025879,4234.487305,4266.153809,4226.410156,4431.282227,4457.692383,4322.307617,4421.025879,2817.000000,4.000000,81.000000,,,,0.000000,4.000000,4.000000,4.000000,4.000000,4.000000,4.000000,4.000000,4.000000,4.000000,4.000000,4.000000,4.000000,4.000000,4.000000,100.000000,,,,,,,,,,,,,,,,,,,,,,,,,,,,,,,,,,,,,,,,,,,,,,,,,,,,,,,,,,,,,,,,,,,,,,,,,,,,,,,,,,,,,,
1676061365.361316,1676061365.362239,85.000000,0.000000,4263.717773,4263.717773,4288.077148,4299.871582,4251.794922,4262.179688,4270.897461,4242.307617,4267.692383,4235.512695,4431.794922,4456.153809,4325.769043,4417.563965,2626.000000,4.000000,81.000000,,,,0.000000,4.000000,4.000000,4.000000,4.000000,4.000000,4.000000,4.000000,4.000000,4.000000,4.000000,4.000000,4.000000,4.000000,4.000000,100.000000,,,,,,,,,,,,,,,,,,,,,,,,,,,,,,,,,,,,,,,,,,,,,,,,,,,,,,,,,,,,,,,,,,,,,,,,,,,,,,,,,,,,,,
1676061365.369125,1676061365.370147,86.000000,0.000000,4253.077148,4262.563965,4285.384766,4296.538574,4254.102539,4267.692383,4290.641113,4267.051270,4280.128418,4246.666504,4403.205078,4444.487305,4335.128418,4407.179688,2528.000000,4.000000,81.000000,,,,0.000000,4.000000,4.000000,4.000000,4.000000,4.000000,4.000000,4.000000,4.000000,4.000000,4.000000,4.000000,4.000000,4.000000,4.000000,100.000000,,,,,,,,,,,,,,,,,,,,,,,,,,,,,,,,,,,,,,,,,,,,,,,,,,,,,,,,,,,,,,,,,,,,,,,,,,,,,,,,,,,,,,
1676061365.376933,1676061365.377955,87.000000,0.000000,4245.256348,4258.333496,4281.025879,4286.666504,4252.436035,4267.307617,4311.025879,4284.102539,4285.384766,4239.230957,4400.128418,4439.615234,4323.589844,4396.153809,2797.000000,4.000000,81.000000,,,,0.000000,4.000000,4.000000,4.000000,4.000000,4.000000,4.000000,4.000000,4.000000,4.000000,4.000000,4.000000,4.000000,4.000000,4.000000,100.000000,,,,,,,,,,,,,,,,,,,,,,,,,,,,,,,,,,,,,,,,,,,,,,,,,,,,,,,,,,,,,,,,,,,,,,,,,,,,,,,,,,,,,,
1676061365.384741,1676061365.385864,88.000000,0.000000,4244.743652,4246.794922,4276.410156,4281.538574,4234.743652,4270.641113,4311.666504,4274.871582,4277.179688,4231.922852,4418.333496,4445.384766,4304.358887,4390.641113,2817.000000,4.000000,81.000000,,,,0.000000,4.000000,4.000000,4.000000,4.000000,4.000000,4.000000,4.000000,4.000000,4.000000,4.000000,4.000000,4.000000,4.000000,4.000000,100.000000,,,,,,,,,,,,,,,,,,,,,,,,,,,,,,,,,,,,,,,,,,,,,,,,,,,,,,,,,,,,,,,,,,,,,,,,,,,,,,,,,,,,,,
1676061365.392550,1676061365.393672,89.000000,0.000000,4241.794922,4238.846191,4264.615234,4277.051270,4234.743652,4272.563965,4301.666504,4261.666504,4272.948730,4240.769043,4407.820313,4441.922852,4303.077148,4393.846191,2626.000000,4.000000,81.000000,,,,0.000000,4.000000,4.000000,4.000000,4.000000,4.000000,4.000000,4.000000,4.000000,4.000000,4.000000,4.000000,4.000000,4.000000,4.000000,100.000000,,,,,,,,,,,,,,,,,,,,,,,,,,,,,,,,,,,,,,,,,,,,,,,,,,,,,,,,,,,,,,,,,,,,,,,,,,,,,,,,,,,,,,
1676061365.400358,1676061365.401481,90.000000,0.000000,4238.077148,4240.384766,4259.871582,4272.692383,4251.410156,4267.436035,4300.128418,4263.077148,4273.461426,4241.666504,4396.666504,4435.128418,4309.230957,4398.461426,2528.000000,4.000000,81.000000,,,,0.000000,4.000000,4.000000,4.000000,4.000000,4.000000,4.000000,4.000000,4.000000,4.000000,4.000000,4.000000,4.000000,4.000000,4.000000,100.000000,,,,,,,,,,,,,,,,,,,,,,,,,,,,,,,,,,,,,,,,,,,,,,,,,,,,,,,,,,,,,,,,,,,,,,,,,,,,,,,,,,,,,,
1676061365.408167,1676061365.409189,91.000000,0.000000,4239.487305,4241.922852,4272.692383,4275.512695,4246.153809,4261.922852,4300.384766,4260.256348,4269.358887,4227.563965,4416.153809,4439.230957,4312.692383,4402.051270,2797.000000,4.000000,81.000000,,,,0.000000,4.000000,4.000000,4.000000,4.000000,4.000000,4.000000,4.000000,4.000000,4.000000,4.000000,4.000000,4.000000,4.000000,4.000000,100.000000,,,,,,,,,,,,,,,,,,,,,,,,,,,,,,,,,,,,,,,,,,,,,,,,,,,,,,,,,,,,,,,,,,,,,,,,,,,,,,,,,,,,,,
1676061365.415975,1676061365.416998,92.000000,0.000000,4241.666504,4236.666504,4275.000000,4275.769043,4235.256348,4258.974121,4291.153809,4239.743652,4262.051270,4219.615234,4420.128418,4440.512695,4318.974121,4400.769043,2817.000000,4.000000,81.000000,,,,0.000000,4.000000,4.000000,4.000000,4.000000,4.000000,4.000000,4.000000,4.000000,4.000000,4.000000,4.000000,4.000000,4.000000,4.000000,100.000000,,,,,,,,,,,,,,,,,,,,,,,,,,,,,,,,,,,,,,,,,,,,,,,,,,,,,,,,,,,,,,,,,,,,,,,,,,,,,,,,,,,,,,
1676061365.423783,1676061365.424706,93.000000,0.000000,4240.000000,4228.974121,4263.717773,4271.025879,4241.666504,4257.948730,4280.256348,4221.794922,4253.333496,4219.358887,4397.692383,4435.128418,4312.179688,4395.256348,2626.000000,4.000000,81.000000,,,,0.000000,4.000000,4.000000,4.000000,4.000000,4.000000,4.000000,4.000000,4.000000,4.000000,4.000000,4.000000,4.000000,4.000000,4.000000,100.000000,,,,,,,,,,,,,,,,,,,,,,,,,,,,,,,,,,,,,,,,,,,,,,,,,,,,,,,,,,,,,,,,,,,,,,,,,,,,,,,,,,,,,,
1676061365.431592,1676061365.432515,94.000000,0.000000,4240.128418,4233.589844,4269.102539,4274.615234,4243.846191,4251.538574,4273.589844,4222.307617,4249.487305,4217.563965,4391.282227,4433.846191,4300.000000,4398.846191,2528.000000,4.000000,81.000000,,,,0.000000,4.000000,4.000000,4.000000,4.000000,4.000000,4.000000,4.000000,4.000000,4.000000,4.000000,4.000000,4.000000,4.000000,4.000000,100.000000,,,,,,,,,,,,,,,,,14.899719,22.496386,0.992252,0.334198,0.357672,10.100427,13.943352,0.602606,0.266488,0.268686,5.371797,8.225842,0.208737,0.123039,0.227786,3.576863,6.295759,0.246862,0.174451,0.206818,8.482306,2.163153,0.476653,0.373387,0.250104,3.804012,1.508919,0.496877,0.112468,0.229500,7.395447,1.797418,1.427505,0.174218,0.330185,11.425007,4.132762,1.876812,0.325627,0.358517,2.595701,1.820973,0.439018,0.289531,0.141234,11.045028,1.875140,0.430167,0.429915,0.284061,13.674881,6.297529,0.477227,0.633899,0.784307,11.372171,4.993446,0.291474,0.233253,0.239892,10.470417,8.550099,0.877994,0.626941,0.545831,14.802456,19.800890,0.748628,0.340934,0.340345
1676061365.439400,1676061365.440223,95.000000,0.000000,4246.666504,4247.948730,4285.897461,4282.820313,4233.333496,4243.974121,4272.179688,4227.692383,4256.666504,4215.384766,4409.871582,4436.538574,4302.051270,4406.025879,2797.000000,4.000000,81.000000,,,,0.000000,4.000000,4.000000,4.000000,4.000000,4.000000,4.000000,4.000000,4.000000,4.000000,4.000000,4.000000,4.000000,4.000000,4.000000,100.000000,,,,,,,,,,,,,,,,,,,,,,,,,,,,,,,,,,,,,,,,,,,,,,,,,,,,,,,,,,,,,,,,,,,,,,,,,,,,,,,,,,,,,,
1676061365.447209,1676061365.448132,96.000000,0.000000,4253.333496,4248.077148,4286.282227,4287.179688,4231.153809,4247.563965,4276.538574,4233.077148,4264.487305,4217.436035,4421.410156,4442.436035,4303.974121,4402.692383,2817.000000,4.000000,81.000000,,,,0.000000,4.000000,4.000000,4.000000,4.000000,4.000000,4.000000,4.000000,4.000000,4.000000,4.000000,4.000000,4.000000,4.000000,4.000000,100.000000,,,,,,,,,,,,,,,,,,,,,,,,,,,,,,,,,,,,,,,,,,,,,,,,,,,,,,,,,,,,,,,,,,,,,,,,,,,,,,,,,,,,,,
1676061365.455017,1676061365.455940,97.000000,0.000000,4249.487305,4236.410156,4274.230957,4285.897461,4238.461426,4255.641113,4279.615234,4245.128418,4266.025879,4220.512695,4402.692383,4447.051270,4297.948730,4395.256348,2626.000000,4.000000,81.000000,,,,0.000000,4.000000,4.000000,4.000000,4.000000,4.000000,4.000000,4.000000,4.000000,4.000000,4.000000,4.000000,4.000000,4.000000,4.000000,100.000000,,,,,,,,,,,,,,,,,,,,,,,,,,,,,,,,,,,,,,,,,,,,,,,,,,,,,,,,,,,,,,,,,,,,,,,,,,,,,,,,,,,,,,
1676061365.462825,1676061365.463848,98.000000,0.000000,4236.025879,4232.051270,4267.948730,4277.051270,4241.666504,4258.461426,4284.871582,4258.974121,4269.358887,4218.846191,4385.512695,4440.384766,4295.897461,4390.256348,2528.000000,4.000000,81.000000,,,,0.000000,4.000000,4.000000,4.000000,4.000000,4.000000,4.000000,4.000000,4.000000,4.000000,4.000000,4.000000,4.000000,4.000000,4.000000,100.000000,,,,,,,,,,,,,,,,,,,,,,,,,,,,,,,,,,,,,,,,,,,,,,,,,,,,,,,,,,,,,,,,,,,,,,,,,,,,,,,,,,,,,,
1676061365.470634,1676061365.471657,99.000000,0.000000,4226.282227,4231.153809,4268.717773,4267.563965,4233.205078,4257.948730,4292.179688,4265.641113,4272.948730,4215.128418,4396.153809,4434.871582,4294.230957,4380.384766,2797.000000,4.000000,81.000000,,,,0.000000,4.000000,4.000000,4.000000,4.000000,4.000000,4.000000,4.000000,4.000000,4.000000,4.000000,4.000000,4.000000,4.000000,4.000000,100.000000,,,,,,,,,,,,,,,,,,,,,,,,,,,,,,,,,,,,,,,,,,,,,,,,,,,,,,,,,,,,,,,,,,,,,,,,,,,,,,,,,,,,,,
1676061365.478442,1676061365.479365,100.000000,0.000000,4226.410156,4228.333496,4264.615234,4269.743652,4221.922852,4260.897461,4290.256348,4262.563965,4276.410156,4218.589844,4404.743652,4436.153809,4292.179688,4373.077148,2817.000000,4.000000,81.000000,,,,0.000000,4.000000,4.000000,4.000000,4.000000,4.000000,4.000000,4.000000,4.000000,4.000000,4.000000,4.000000,4.000000,4.000000,4.000000,100.000000,,,,,,,,,,,,,,,,,,,,,,,,,,,,,,,,,,,,,,,,,,,,,,,,,,,,,,,,,,,,,,,,,,,,,,,,,,,,,,,,,,,,,,
1676061365.486251,1676061365.487274,101.000000,0.000000,4229.487305,4228.077148,4257.179688,4277.179688,4221.922852,4261.922852,4276.282227,4251.025879,4275.384766,4228.461426,4395.769043,4433.589844,4295.641113,4378.461426,2626.000000,4.000000,81.000000,,,,0.000000,4.000000,4.000000,4.000000,4.000000,4.000000,4.000000,4.000000,4.000000,4.000000,4.000000,4.000000,4.000000,4.000000,4.000000,100.000000,,,,,,,,,,,,,,,,,,,,,,,,,,,,,,,,,,,,,,,,,,,,,,,,,,,,,,,,,,,,,,,,,,,,,,,,,,,,,,,,,,,,,,
1676061365.494059,1676061365.495082,102.000000,0.000000,4228.461426,4232.307617,4257.179688,4273.461426,4230.769043,4254.871582,4260.769043,4237.307617,4265.000000,4225.128418,4399.743652,4428.589844,4291.794922,4386.153809,2528.000000,4.000000,81.000000,,,,0.000000,4.000000,4.000000,4.000000,4.000000,4.000000,4.000000,4.000000,4.000000,4.000000,4.000000,4.000000,4.000000,4.000000,4.000000,100.000000,,,,,,,,,,,,,,,,,,,,,,,,,,,,,,,,,,,,,,,,,,,,,,,,,,,,,,,,,,,,,,,,,,,,,,,,,,,,,,,,,,,,,,
1676061365.501867,1676061365.502891,103.000000,0.000000,4227.051270,4235.384766,4263.974121,4265.641113,4231.794922,4245.641113,4254.871582,4230.384766,4260.384766,4208.717773,4405.897461,4425.641113,4286.794922,4385.000000,2797.000000,4.000000,81.000000,,,,0.000000,4.000000,4.000000,4.000000,4.000000,4.000000,4.000000,4.000000,4.000000,4.000000,4.000000,4.000000,4.000000,4.000000,4.000000,100.000000,,,,,,,,,,,,,,,,,,,,,,,,,,,,,,,,,,,,,,,,,,,,,,,,,,,,,,,,,,,,,,,,,,,,,,,,,,,,,,,,,,,,,,
1676061365.509676,1676061365.510599,104.000000,0.000000,4239.615234,4241.153809,4274.102539,4268.589844,4234.230957,4244.102539,4255.512695,4227.307617,4262.948730,4204.487305,4400.769043,4431.922852,4303.974121,4389.743652,2817.000000,4.000000,81.000000,,,,0.000000,4.000000,4.000000,4.000000,4.000000,4.000000,4.000000,4.000000,4.000000,4.000000,4.000000,4.000000,4.000000,4.000000,4.000000,100.000000,,,,,,,,,,,,,,,,,,,,,,,,,,,,,,,,,,,,,,,,,,,,,,,,,,,,,,,,,,,,,,,,,,,,,,,,,,,,,,,,,,,,,,
1676061365.517484,1676061365.518408,105.000000,0.000000,4260.769043,4250.384766,4286.025879,4281.153809,4243.589844,4247.051270,4250.641113,4226.794922,4260.641113,4214.615234,4409.358887,4449.487305,4315.512695,4411.153809,2626.000000,4.000000,81.000000,,,,0.000000,4.000000,4.000000,4.000000,4.000000,4.000000,4.000000,4.000000,4.000000,4.000000,4.000000,4.000000,4.000000,4.000000,4.000000,100.000000,,,,,,,,,,,,,,,,,,,,,,,,,,,,,,,,,,,,,,,,,,,,,,,,,,,,,,,,,,,,,,,,,,,,,,,,,,,,,,,,,,,,,,
1676061365.525292,1676061365.526116,106.000000,0.000000,4276.922852,4258.589844,4296.922852,4298.205078,4248.974121,4253.974121,4260.897461,4240.897461,4262.051270,4226.410156,4426.538574,4467.820313,4313.333496,4433.205078,2528.000000,4.000000,81.000000,,,,0.000000,4.000000,4.000000,4.000000,4.000000,4.000000,4.000000,4.000000,4.000000,4.000000,4.000000,4.000000,4.000000,4.000000,4.000000,100.000000,,,,,,,,,,,,,,,,,,,,,,,,,,,,,,,,,,,,,,,,,,,,,,,,,,,,,,,,,,,,,,,,,,,,,,,,,,,,,,,,,,,,,,
1676061365.533101,1676061365.533925,107.000000,0.000000,4280.641113,4260.897461,4303.974121,4306.282227,4255.256348,4267.051270,4291.538574,4266.025879,4270.769043,4228.461426,4437.436035,4476.025879,4317.436035,4432.436035,2797.000000,4.000000,81.000000,,,,0.000000,4.000000,4.000000,4.000000,4.000000,4.000000,4.000000,4.000000,4.000000,4.000000,4.000000,4.000000,4.000000,4.000000,4.000000,100.000000,,,,,,,,,,,,,,,,,,,,,,,,,,,,,,,,,,,,,,,,,,,,,,,,,,,,,,,,,,,,,,,,,,,,,,,,,,,,,,,,,,,,,,
1676061365.540909,1676061365.541633,108.000000,0.000000,4281.153809,4267.051270,4303.717773,4302.051270,4269.230957,4273.461426,4301.922852,4274.487305,4275.000000,4230.384766,4447.948730,4477.307617,4326.025879,4423.846191,2817.000000,4.000000,81.000000,,,,0.000000,4.000000,4.000000,4.000000,4.000000,4.000000,4.000000,4.000000,4.000000,4.000000,4.000000,4.000000,4.000000,4.000000,4.000000,100.000000,,,,,,,,,,,,,,,,,,,,,,,,,,,,,,,,,,,,,,,,,,,,,,,,,,,,,,,,,,,,,,,,,,,,,,,,,,,,,,,,,,,,,,
1676061365.548717,1676061365.549442,109.000000,0.000000,4286.794922,4281.538574,4298.077148,4301.153809,4283.589844,4279.102539,4295.897461,4272.948730,4277.436035,4256.538574,4451.410156,4477.948730,4345.897461,4435.000000,2626.000000,4.000000,81.000000,,,,0.000000,4.000000,4.000000,4.000000,4.000000,4.000000,4.000000,4.000000,4.000000,4.000000,4.000000,4.000000,4.000000,4.000000,4.000000,100.000000,,,,,,,,,,,,,,,,,,,,,,,,,,,,,,,,,,,,,,,,,,,,,,,,,,,,,,,,,,,,,,,,,,,,,,,,,,,,,,,,,,,,,,
1676061365.556526,1676061365.557150,110.000000,0.000000,4284.743652,4283.461426,4292.563965,4306.794922,4292.948730,4295.256348,4306.666504,4288.333496,4282.948730,4286.282227,4448.461426,4475.897461,4365.256348,4443.205078,2528.000000,4.000000,81.000000,,,,0.000000,4.000000,4.000000,4.000000,4.000000,4.000000,4.000000,4.000000,4.000000,4.000000,4.000000,4.000000,4.000000,4.000000,4.000000,100.000000,,,,,,,,,,,,,,,,,15.728215,22.991764,0.818722,0.313182,0.332181,11.078560,14.982253,0.496956,0.254513,0.241411,5.516959,8.429792,0.224514,0.114690,0.222080,3.909127,6.496375,0.255813,0.158144,0.216744,9.540092,2.140494,0.386024,0.356658,0.293554,4.314999,1.776320,0.377828,0.116009,0.215592,7.938866,2.501307,1.040289,0.175610,0.327674,11.781127,5.349532,1.531304,0.336004,0.367143,2.719858,2.054546,0.443242,0.275639,0.141185,11.719967,2.520507,0.519626,0.379113,0.314618,14.122898,6.444594,0.546452,0.772082,0.874540,11.699605,5.289087,0.305672,0.231621,0.209505,11.059710,8.695292,0.742347,0.637503,0.613021,15.399761,20.452995,0.704372,0.289883,0.367375
1676061365.564334,1676061365.564959,111.000000,0.000000,4277.179688,4285.512695,4291.922852,4310.384766,4300.641113,4305.128418,4321.410156,4308.589844,4289.487305,4285.128418,4456.282227,4472.436035,4361.282227,4428.846191,2797.000000,4.000000,81.000000,,,,0.000000,4.000000,4.000000,4.000000,4.000000,4.000000,4.000000,4.000000,4.000000,4.000000,4.000000,4.000000,4.000000,4.000000,4.000000,100.000000,,,,,,,,,,,,,,,,,,,,,,,,,,,,,,,,,,,,,,,,,,,,,,,,,,,,,,,,,,,,,,,,,,,,,,,,,,,,,,,,,,,,,,
1676061365.572143,1676061365.572667,112.000000,0.000000,4281.922852,4301.410156,4294.615234,4310.384766,4306.538574,4301.410156,4323.333496,4312.307617,4298.846191,4281.794922,4472.307617,4478.974121,4364.102539,4424.487305,2817.000000,4.000000,81.000000,,,,0.000000,4.000000,4.000000,4.000000,4.000000,4.000000,4.000000,4.000000,4.000000,4.000000,4.000000,4.000000,4.000000,4.000000,4.000000,100.000000,,,,,,,,,,,,,,,,,,,,,,,,,,,,,,,,,,,,,,,,,,,,,,,,,,,,,,,,,,,,,,,,,,,,,,,,,,,,,,,,,,,,,,
1676061365.579951,1676061365.580476,113.000000,0.000000,4295.128418,4310.384766,4295.256348,4307.692383,4315.641113,4302.820313,4324.487305,4313.333496,4304.615234,4303.077148,4489.615234,4492.692383,4385.256348,4445.256348,2626.000000,4.000000,81.000000,,,,0.000000,4.000000,4.000000,4.000000,4.000000,4.000000,4.000000,4.000000,4.000000,4.000000,4.000000,4.000000,4.000000,4.000000,4.000000,100.000000,,,,,,,,,,,,,,,,,,,,,,,,,,,,,,,,,,,,,,,,,,,,,,,,,,,,,,,,,,,,,,,,,,,,,,,,,,,,,,,,,,,,,,
1676061365.587759,1676061365.588184,114.000000,0.000000,4301.282227,4307.307617,4296.282227,4306.794922,4324.871582,4304.615234,4320.769043,4315.641113,4299.487305,4315.000000,4495.897461,4495.897461,4382.051270,4454.358887,2528.000000,4.000000,81.000000,,,,0.000000,4.000000,4.000000,4.000000,4.000000,4.000000,4.000000,4.000000,4.000000,4.000000,4.000000,4.000000,4.000000,4.000000,4.000000,100.000000,,,,,,,,,,,,,,,,,,,,,,,,,,,,,,,,,,,,,,,,,,,,,,,,,,,,,,,,,,,,,,,,,,,,,,,,,,,,,,,,,,,,,,
1676061365.595568,1676061365.596093,115.000000,0.000000,4311.410156,4319.230957,4306.025879,4316.282227,4319.743652,4296.538574,4311.922852,4307.563965,4294.487305,4311.153809,4491.538574,4496.922852,4383.077148,4458.077148,2797.000000,4.000000,81.000000,,,,0.000000,4.000000,4.000000,4.000000,4.000000,4.000000,4.000000,4.000000,4.000000,4.000000,4.000000,4.000000,4.000000,4.000000,4.000000,100.000000,,,,,,,,,,,,,,,,,,,,,,,,,,,,,,,,,,,,,,,,,,,,,,,,,,,,,,,,,,,,,,,,,,,,,,,,,,,,,,,,,,,,,,
1676061365.603376,1676061365.603901,116.000000,0.000000,4326.666504,4335.000000,4316.922852,4321.922852,4308.846191,4292.179688,4313.205078,4300.000000,4295.512695,4308.077148,4490.769043,4505.512695,4411.794922,4472.948730,2817.000000,4.000000,81.000000,,,,0.000000,4.000000,4.000000,4.000000,4.000000,4.000000,4.000000,4.000000,4.000000,4.000000,4.000000,4.000000,4.000000,4.000000,4.000000,100.000000,,,,,,,,,,,,,,,,,,,,,,,,,,,,,,,,,,,,,,,,,,,,,,,,,,,,,,,,,,,,,,,,,,,,,,,,,,,,,,,,,,,,,,
1676061365.611184,1676061365.611809,117.000000,0.000000,4336.666504,4330.641113,4320.641113,4321.922852,4319.487305,4300.000000,4323.333496,4304.871582,4294.743652,4307.692383,4497.692383,4513.077148,4421.153809,4483.589844,2626.000000,4.000000,81.000000,,,,0.000000,4.000000,4.000000,4.000000,4.000000,4.000000,4.000000,4.000000,4.000000,4.000000,4.000000,4.000000,4.000000,4.000000,4.000000,100.000000,,,,,,,,,,,,,,,,,,,,,,,,,,,,,,,,,,,,,,,,,,,,,,,,,,,,,,,,,,,,,,,,,,,,,,,,,,,,,,,,,,,,,,
1676061365.618993,1676061365.619618,118.000000,0.000000,4338.461426,4319.358887,4320.641113,4328.846191,4331.538574,4305.512695,4329.615234,4314.743652,4289.487305,4310.512695,4500.641113,4519.230957,4403.205078,4484.871582,2528.000000,4.000000,81.000000,,,,0.000000,4.000000,4.000000,4.000000,4.000000,4.000000,4.000000,4.000000,4.000000,4.000000,4.000000,4.000000,4.000000,4.000000,4.000000,100.000000,,,,,,,,,,,,,,,,,,,,,,,,,,,,,,,,,,,,,,,,,,,,,,,,,,,,,,,,,,,,,,,,,,,,,,,,,,,,,,,,,,,,,,
1676061365.626801,1676061365.627526,119.000000,0.000000,4333.461426,4317.692383,4322.563965,4334.615234,4323.461426,4303.333496,4334.743652,4323.717773,4288.205078,4307.563965,4499.615234,4517.820313,4385.512695,4480.384766,2797.000000,4.000000,81.000000,,,,0.000000,4.000000,4.000000,4.000000,4.000000,4.000000,4.000000,4.000000,4.000000,4.000000,4.000000,4.000000,4.000000,4.000000,4.000000,100.000000,,,,,,,,,,,,,,,,,,,,,,,,,,,,,,,,,,,,,,,,,,,,,,,,,,,,,,,,,,,,,,,,,,,,,,,,,,,,,,,,,,,,,,
1676061365.634610,1676061365.635335,120.000000,0.000000,4332.563965,4328.717773,4322.820313,4330.000000,4322.436035,4300.641113,4339.230957,4325.128418,4292.820313,4300.000000,4495.512695,4509.487305,4382.948730,4471.153809,2817.000000,4.000000,81.000000,,,,0.000000,4.000000,4.000000,4.000000,4.000000,4.000000,4.000000,4.000000,4.000000,4.000000,4.000000,4.000000,4.000000,4.000000,4.000000,100.000000,,,,,,,,,,,,,,,,,,,,,,,,,,,,,,,,,,,,,,,,,,,,,,,,,,,,,,,,,,,,,,,,,,,,,,,,,,,,,,,,,,,,,,
1676061365.642418,1676061365.643243,121.000000,0.000000,4337.179688,4337.948730,4314.871582,4326.538574,4334.102539,4302.692383,4333.974121,4317.948730,4292.820313,4306.922852,4482.948730,4507.948730,4394.230957,4466.410156,2626.000000,4.000000,81.000000,,,,0.000000,4.000000,4.000000,4.000000,4.000000,4.000000,4.000000,4.000000,4.000000,4.000000,4.000000,4.000000,4.000000,4.000000,4.000000,100.000000,,,,,,,,,,,,,,,,,,,,,,,,,,,,,,,,,,,,,,,,,,,,,,,,,,,,,,,,,,,,,,,,,,,,,,,,,,,,,,,,,,,,,,
1676061365.650226,1676061365.651051,122.000000,0.000000,4333.333496,4331.025879,4302.820313,4327.436035,4330.769043,4300.641113,4319.358887,4312.051270,4289.487305,4313.974121,4476.153809,4505.256348,4400.384766,4467.563965,2528.000000,4.000000,81.000000,,,,0.000000,4.000000,4.000000,4.000000,4.000000,4.000000,4.000000,4.000000,4.000000,4.000000,4.000000,4.000000,4.000000,4.000000,4.000000,100.000000,,,,,,,,,,,,,,,,,,,,,,,,,,,,,,,,,,,,,,,,,,,,,,,,,,,,,,,,,,,,,,,,,,,,,,,,,,,,,,,,,,,,,,
1676061365.658035,1676061365.658960,123.000000,0.000000,4317.820313,4321.538574,4296.666504,4325.384766,4325.769043,4291.794922,4312.692383,4311.153809,4288.333496,4297.307617,4477.436035,4493.205078,4388.077148,4459.358887,2797.000000,4.000000,81.000000,,,,0.000000,4.000000,4.000000,4.000000,4.000000,4.000000,4.000000,4.000000,4.000000,4.000000,4.000000,4.000000,4.000000,4.000000,4.000000,100.000000,,,,,,,,,,,,,,,,,,,,,,,,,,,,,,,,,,,,,,,,,,,,,,,,,,,,,,,,,,,,,,,,,,,,,,,,,,,,,,,,,,,,,,
1676061365.665843,1676061365.666768,124.000000,0.000000,4307.820313,4320.256348,4295.128418,4321.282227,4327.307617,4291.922852,4318.846191,4308.717773,4287.692383,4280.897461,4470.000000,4486.666504,4374.615234,4441.538574,2817.000000,4.000000,81.000000,,,,0.000000,4.000000,4.000000,4.000000,4.000000,4.000000,4.000000,4.000000,4.000000,4.000000,4.000000,4.000000,4.000000,4.000000,4.000000,100.000000,,,,,,,,,,,,,,,,,,,,,,,,,,,,,,,,,,,,,,,,,,,,,,,,,,,,,,,,,,,,,,,,,,,,,,,,,,,,,,,,,,,,,,
1676061365.673652,1676061365.674477,125.000000,0.000000,4304.487305,4313.461426,4291.538574,4315.000000,4310.897461,4297.948730,4319.871582,4307.692383,4293.589844,4283.461426,4453.333496,4484.102539,4372.692383,4427.179688,2626.000000,4.000000,81.000000,,,,0.000000,4.000000,4.000000,4.000000,4.000000,4.000000,4.000000,4.000000,4.000000,4.000000,4.000000,4.000000,4.000000,4.000000,4.000000,100.000000,,,,,,,,,,,,,,,,,,,,,,,,,,,,,,,,,,,,,,,,,,,,,,,,,,,,,,,,,,,,,,,,,,,,,,,,,,,,,,,,,,,,,,
1676061365.681460,1676061365.682285,126.000000,0.000000,4300.641113,4299.487305,4288.974121,4307.948730,4298.077148,4292.948730,4308.205078,4302.563965,4295.512695,4286.666504,4446.410156,4477.948730,4371.538574,4425.000000,2528.000000,4.000000,81.000000,,,,0.000000,4.000000,4.000000,4.000000,4.000000,4.000000,4.000000,4.000000,4.000000,4.000000,4.000000,4.000000,4.000000,4.000000,4.000000,100.000000,,,,,,,,,,,,,,,,,15.108741,23.049515,0.777301,0.291636,0.303418,11.175217,16.459715,0.450667,0.242651,0.217097,5.117292,8.455182,0.255296,0.109001,0.214572,3.933578,6.784171,0.262202,0.146481,0.219982,9.793008,2.090319,0.302978,0.353069,0.346428,4.414213,2.061665,0.325505,0.119258,0.202755,7.737962,3.564591,0.901004,0.185415,0.331448,10.789021,6.779945,1.484360,0.347464,0.376656,2.534279,2.263053,0.468850,0.242511,0.148499,11.139806,3.188960,0.648292,0.350827,0.353471,13.003239,6.392221,0.663027,0.958587,1.001526,10.697101,5.309921,0.364814,0.242782,0.194798,10.441411,8.677064,0.683753,0.652031,0.697718,14.146943,20.522261,0.767347,0.277629,0.415952
1676061365.689268,1676061365.689994,127.000000,0.000000,4301.153809,4292.820313,4291.410156,4305.897461,4302.820313,4281.282227,4296.025879,4291.538574,4283.717773,4280.641113,4457.179688,4478.974121,4376.282227,4435.000000,81.000000,4.000000,81.000000,,,,0.000000,4.000000,4.000000,4.000000,4.000000,4.000000,4.000000,4.000000,4.000000,4.000000,4.000000,4.000000,4.000000,4.000000,4.000000,100.000000,,,,,,,,,,,,,,,,,,,,,,,,,,,,,,,,,,,,,,,,,,,,,,,,,,,,,,,,,,,,,,,,,,,,,,,,,,,,,,,,,,,,,,
1676061365.697077,1676061365.697802,0.000000,0.000000,4309.615234,4297.692383,4304.230957,4310.256348,4299.615234,4277.948730,4300.641113,4294.615234,4282.307617,4281.538574,4469.871582,4491.410156,4391.410156,4448.461426,2069.000000,4.000000,81.000000,,,,0.000000,4.000000,4.000000,4.000000,4.000000,4.000000,4.000000,4.000000,4.000000,4.000000,4.000000,4.000000,4.000000,4.000000,4.000000,100.000000,,,,,,,,,,,,,,,,,,,,,,,,,,,,,,,,,,,,,,,,,,,,,,,,,,,,,,,,,,,,,,,,,,,,,,,,,,,,,,,,,,,,,,
1676061365.704885,1676061365.705511,1.000000,0.000000,4321.666504,4302.436035,4316.025879,4315.128418,4290.256348,4280.000000,4314.102539,4303.589844,4294.871582,4288.589844,4475.641113,4504.102539,4391.153809,4454.487305,2062.000000,4.000000,81.000000,,,,0.000000,4.000000,4.000000,4.000000,4.000000,4.000000,4.000000,4.000000,4.000000,4.000000,4.000000,4.000000,4.000000,4.000000,4.000000,100.000000,,,,,,,,,,,,,,,,,,,,,,,,,,,,,,,,,,,,,,,,,,,,,,,,,,,,,,,,,,,,,,,,,,,,,,,,,,,,,,,,,,,,,,
1676061365.712694,1676061365.713319,2.000000,0.000000,4329.102539,4300.641113,4312.692383,4316.666504,4293.974121,4282.563965,4318.974121,4306.538574,4295.897461,4295.128418,4479.743652,4509.487305,4380.128418,4452.948730,2453.000000,4.000000,81.000000,,,,0.000000,4.000000,4.000000,4.000000,4.000000,4.000000,4.000000,4.000000,4.000000,4.000000,4.000000,4.000000,4.000000,4.000000,4.000000,100.000000,,,,,,,,,,,,,,,,,,,,,,,,,,,,,,,,,,,,,,,,,,,,,,,,,,,,,,,,,,,,,,,,,,,,,,,,,,,,,,,,,,,,,,
1676061365.720502,1676061365.721028,3.000000,0.000000,4328.717773,4300.512695,4310.384766,4320.000000,4304.743652,4284.743652,4320.256348,4315.897461,4290.897461,4300.000000,4481.538574,4507.307617,4386.666504,4453.461426,2361.000000,4.000000,81.000000,,,,0.000000,4.000000,4.000000,4.000000,4.000000,4.000000,4.000000,4.000000,4.000000,4.000000,4.000000,4.000000,4.000000,4.000000,4.000000,100.000000,,,,,,,,,,,,,,,,,,,,,,,,,,,,,,,,,,,,,,,,,,,,,,,,,,,,,,,,,,,,,,,,,,,,,,,,,,,,,,,,,,,,,,
1676061365.728310,1676061365.728836,4.000000,0.000000,4333.589844,4312.820313,4321.538574,4328.846191,4313.077148,4286.282227,4326.153809,4328.717773,4294.230957,4301.538574,4479.358887,4508.077148,4405.769043,4457.436035,2451.000000,4.000000,81.000000,,,,0.000000,4.000000,4.000000,4.000000,4.000000,4.000000,4.000000,4.000000,4.000000,4.000000,4.000000,4.000000,4.000000,4.000000,4.000000,100.000000,,,,,,,,,,,,,,,,,,,,,,,,,,,,,,,,,,,,,,,,,,,,,,,,,,,,,,,,,,,,,,,,,,,,,,,,,,,,,,,,,,,,,,
1676061365.736119,1676061365.736545,5.000000,0.000000,4337.692383,4319.102539,4324.358887,4329.102539,4315.512695,4289.358887,4327.820313,4319.615234,4290.128418,4293.846191,4468.717773,4508.589844,4403.589844,4448.077148,2117.000000,4.000000,81.000000,,,,0.000000,4.000000,4.000000,4.000000,4.000000,4.000000,4.000000,4.000000,4.000000,4.000000,4.000000,4.000000,4.000000,4.000000,4.000000,100.000000,,,,,,,,,,,,,,,,,,,,,,,,,,,,,,,,,,,,,,,,,,,,,,,,,,,,,,,,,,,,,,,,,,,,,,,,,,,,,,,,,,,,,,
1676061365.743927,1676061365.744353,6.000000,0.000000,4328.717773,4311.025879,4308.461426,4318.974121,4312.692383,4293.205078,4320.512695,4303.974121,4282.307617,4286.666504,4461.538574,4496.282227,4382.051270,4434.102539,2204.000000,4.000000,81.000000,,,,0.000000,4.000000,4.000000,4.000000,4.000000,4.000000,4.000000,4.000000,4.000000,4.000000,4.000000,4.000000,4.000000,4.000000,4.000000,100.000000,,,,,,,,,,,,,,,,,,,,,,,,,,,,,,,,,,,,,,,,,,,,,,,,,,,,,,,,,,,,,,,,,,,,,,,,,,,,,,,,,,,,,,
1676061365.751735,1676061365.752062,7.000000,0.000000,4312.820313,4300.128418,4291.410156,4312.820313,4303.717773,4291.153809,4313.333496,4300.512695,4279.230957,4283.461426,4459.871582,4477.948730,4366.794922,4430.000000,2302.000000,4.000000,81.000000,,,,0.000000,4.000000,4.000000,4.000000,4.000000,4.000000,4.000000,4.000000,4.000000,4.000000,4.000000,4.000000,4.000000,4.000000,4.000000,100.000000,,,,,,,,,,,,,,,,,,,,,,,,,,,,,,,,,,,,,,,,,,,,,,,,,,,,,,,,,,,,,,,,,,,,,,,,,,,,,,,,,,,,,,
1676061365.759544,1676061365.759870,8.000000,0.000000,4299.230957,4285.384766,4285.512695,4309.743652,4289.871582,4280.897461,4306.666504,4296.153809,4277.692383,4272.692383,4453.333496,4469.230957,4361.153809,4422.948730,1646.000000,4.000000,81.000000,,,,0.000000,4.000000,4.000000,4.000000,4.000000,4.000000,4.000000,4.000000,4.000000,4.000000,4.000000,4.000000,4.000000,4.000000,4.000000,100.000000,,,,,,,,,,,,,,,,,,,,,,,,,,,,,,,,,,,,,,,,,,,,,,,,,,,,,,,,,,,,,,,,,,,,,,,,,,,,,,,,,,,,,,
1676061365.767352,1676061365.767579,9.000000,0.000000,4292.436035,4272.692383,4286.153809,4299.743652,4282.563965,4273.461426,4299.230957,4284.102539,4279.487305,4262.692383,4441.282227,4471.666504,4356.410156,4412.179688,2446.000000,4.000000,81.000000,,,,0.000000,4.000000,4.000000,4.000000,4.000000,4.000000,4.000000,4.000000,4.000000,4.000000,4.000000,4.000000,4.000000,4.000000,4.000000,100.000000,,,,,,,,,,,,,,,,,,,,,,,,,,,,,,,,,,,,,,,,,,,,,,,,,,,,,,,,,,,,,,,,,,,,,,,,,,,,,,,,,,,,,,
1676061365.775160,1676061365.775387,10.000000,0.000000,4299.230957,4278.205078,4289.871582,4298.974121,4288.205078,4278.717773,4299.102539,4280.384766,4283.077148,4266.538574,4443.589844,4483.974121,4356.794922,4418.846191,2545.000000,4.000000,81.000000,,,,0.000000,4.000000,4.000000,4.000000,4.000000,4.000000,4.000000,4.000000,4.000000,4.000000,4.000000,4.000000,4.000000,4.000000,4.000000,100.000000,,,,,,,,,,,,,,,,,,,,,,,,,,,,,,,,,,,,,,,,,,,,,,,,,,,,,,,,,,,,,,,,,,,,,,,,,,,,,,,,,,,,,,
1676061365.782969,1676061365.783096,11.000000,0.000000,4308.717773,4285.256348,4295.641113,4305.512695,4288.589844,4282.179688,4304.230957,4297.179688,4292.051270,4278.974121,4462.948730,4493.205078,4371.282227,4436.666504,2775.000000,4.000000,81.000000,,,,0.000000,4.000000,4.000000,4.000000,4.000000,4.000000,4.000000,4.000000,4.000000,4.000000,4.000000,4.000000,4.000000,4.000000,4.000000,100.000000,,,,,,,,,,,,,,,,,,,,,,,,,,,,,,,,,,,,,,,,,,,,,,,,,,,,,,,,,,,,,,,,,,,,,,,,,,,,,,,,,,,,,,
1676061365.790777,1676061365.791004,12.000000,0.000000,4307.692383,4280.769043,4304.230957,4303.846191,4280.897461,4274.871582,4305.769043,4306.025879,4298.461426,4288.205078,4477.051270,4491.410156,4382.436035,4444.102539,2800.000000,4.000000,81.000000,,,,0.000000,4.000000,4.000000,4.000000,4.000000,4.000000,4.000000,4.000000,4.000000,4.000000,4.000000,4.000000,4.000000,4.000000,4.000000,100.000000,,,,,,,,,,,,,,,,,,,,,,,,,,,,,,,,,,,,,,,,,,,,,,,,,,,,,,,,,,,,,,,,,,,,,,,,,,,,,,,,,,,,,,
1676061365.798586,1676061365.798812,13.000000,0.000000,4313.205078,4283.974121,4309.743652,4305.512695,4279.615234,4270.384766,4305.000000,4293.205078,4290.000000,4287.948730,4478.333496,4497.179688,4379.615234,4447.436035,2620.000000,4.000000,81.000000,,,,0.000000,4.000000,4.000000,4.000000,4.000000,4.000000,4.000000,4.000000,4.000000,4.000000,4.000000,4.000000,4.000000,4.000000,4.000000,100.000000,,,,,,,,,,,,,,,,,,,,,,,,,,,,,,,,,,,,,,,,,,,,,,,,,,,,,,,,,,,,,,,,,,,,,,,,,,,,,,,,,,,,,,
1676061365.806394,1676061365.806721,14.000000,0.000000,4327.051270,4293.461426,4310.128418,4315.769043,4286.410156,4280.641113,4309.230957,4295.256348,4286.153809,4290.384766,4476.538574,4511.922852,4389.102539,4457.948730,2545.000000,4.000000,81.000000,,,,0.000000,4.000000,4.000000,4.000000,4.000000,4.000000,4.000000,4.000000,4.000000,4.000000,4.000000,4.000000,4.000000,4.000000,4.000000,100.000000,1.000000,75.000000,3.000000,4.000000,3.000000,4.000000,3.000000,3.000000,3.000000,3.000000,4.000000,3.000000,4.000000,4.000000,4.000000,3.000000,13.140405,23.507317,0.783404,0.272983,0.271528,10.421465,18.740320,0.424798,0.233356,0.198815,4.225503,8.662588,0.275795,0.103256,0.209339,3.640288,7.411956,0.255394,0.141669,0.218327,9.198695,2.112539,0.255179,0.360568,0.397158,4.056392,2.358853,0.340323,0.122210,0.189458,6.913294,4.790380,0.967704,0.202014,0.340058,8.724211,8.185008,1.680434,0.355821,0.388349,2.103518,2.448423,0.500141,0.195766,0.159639,9.601158,3.726118,0.781077,0.353684,0.390536,10.714773,6.350230,0.790969,1.158328,1.126453,8.600607,5.177698,0.440552,0.257624,0.192316,8.989970,8.844432,0.706123,0.663778,0.784322,11.537578,20.757912,0.856966,0.308659,0.464798
1676061365.814202,1676061365.814529,15.000000,0.000000,4330.512695,4297.307617,4310.769043,4321.282227,4298.205078,4287.563965,4313.333496,4313.461426,4296.025879,4300.512695,4479.230957,4507.563965,4404.615234,4464.487305,2775.000000,4.000000,81.000000,,,,0.000000,4.000000,4.000000,4.000000,4.000000,4.000000,4.000000,4.000000,4.000000,4.000000,4.000000,4.000000,4.000000,4.000000,4.000000,100.000000,,,,,,,,,,,,,,,,,,,,,,,,,,,,,,,,,,,,,,,,,,,,,,,,,,,,,,,,,,,,,,,,,,,,,,,,,,,,,,,,,,,,,,
1676061365.822011,1676061365.822438,16.000000,0.000000,4326.153809,4304.102539,4312.948730,4319.871582,4303.461426,4276.538574,4312.948730,4313.333496,4295.128418,4297.948730,4479.487305,4496.025879,4393.589844,4453.589844,0.000000,4.000000,81.000000,,,,0.000000,4.000000,4.000000,4.000000,4.000000,4.000000,4.000000,4.000000,4.000000,4.000000,4.000000,4.000000,4.000000,4.000000,4.000000,100.000000,,,,,,,,,,,,,,,,,,,,,,,,,,,,,,,,,,,,,,,,,,,,,,,,,,,,,,,,,,,,,,,,,,,,,,,,,,,,,,,,,,,,,,
1676061365.829819,1676061365.830246,17.000000,0.000000,4320.641113,4305.512695,4311.282227,4318.717773,4296.153809,4275.256348,4319.102539,4310.897461,4290.128418,4284.743652,4473.717773,4500.384766,4378.461426,4439.102539,0.000000,4.000000,81.000000,,,,0.000000,4.000000,4.000000,4.000000,4.000000,4.000000,4.000000,4.000000,4.000000,4.000000,4.000000,4.000000,4.000000,4.000000,4.000000,100.000000,,,,,,,,,,,,,,,,,,,,,,,,,,,,,,,,,,,,,,,,,,,,,,,,,,,,,,,,,,,,,,,,,,,,,,,,,,,,,,,,,,,,,,
1676061365.837628,1676061365.838154,18.000000,0.000000,4306.282227,4288.205078,4298.461426,4311.794922,4286.922852,4288.461426,4322.436035,4313.205078,4291.410156,4278.974121,4464.230957,4498.974121,4378.205078,4432.179688,0.000000,4.000000,81.000000,,,,0.000000,4.000000,4.000000,4.000000,4.000000,4.000000,4.000000,4.000000,4.000000,4.000000,4.000000,4.000000,4.000000,4.000000,4.000000,100.000000,,,,,,,,,,,,,,,,,,,,,,,,,,,,,,,,,,,,,,,,,,,,,,,,,,,,,,,,,,,,,,,,,,,,,,,,,,,,,,,,,,,,,,
1676061365.845436,1676061365.845963,19.000000,0.000000,4287.179688,4272.563965,4281.282227,4298.846191,4285.512695,4283.077148,4309.102539,4296.666504,4280.256348,4275.641113,4448.333496,4478.589844,4374.102539,4423.077148,0.000000,4.000000,81.000000,,,,0.000000,4.000000,4.000000,4.000000,4.000000,4.000000,4.000000,4.000000,4.000000,4.000000,4.000000,4.000000,4.000000,4.000000,4.000000,100.000000,,,,,,,,,,,,,,,,,,,,,,,,,,,,,,,,,,,,,,,,,,,,,,,,,,,,,,,,,,,,,,,,,,,,,,,,,,,,,,,,,,,,,,
1676061365.853244,1676061365.853871,20.000000,0.000000,4277.179688,4273.333496,4279.487305,4292.179688,4287.820313,4268.077148,4297.692383,4283.589844,4267.436035,4261.922852,4437.692383,4466.282227,4361.794922,4411.282227,0.000000,4.000000,81.000000,,,,0.000000,4.000000,4.000000,4.000000,4.000000,4.000000,4.000000,4.000000,4.000000,4.000000,4.000000,4.000000,4.000000,4.000000,4.000000,100.000000,,,,,,,,,,,,,,,,,,,,,,,,,,,,,,,,,,,,,,,,,,,,,,,,,,,,,,,,,,,,,,,,,,,,,,,,,,,,,,,,,,,,,,
1676061365.861053,1676061365.861680,21.000000,0.000000,4283.461426,4281.153809,4290.512695,4294.743652,4291.794922,4273.205078,4303.205078,4288.846191,4273.461426,4251.538574,4449.358887,4471.922852,4354.487305,4405.897461,0.000000,4.000000,81.000000,,,,0.000000,4.000000,4.000000,4.000000,4.000000,4.000000,4.000000,4.000000,4.000000,4.000000,4.000000,4.000000,4.000000,4.000000,4.000000,100.000000,,,,,,,,,,,,,,,,,,,,,,,,,,,,,,,,,,,,,,,,,,,,,,,,,,,,,,,,,,,,,,,,,,,,,,,,,,,,,,,,,,,,,,
1676061365.868861,1676061365.869488,22.000000,0.000000,4288.846191,4280.512695,4289.102539,4291.794922,4288.205078,4279.743652,4303.589844,4283.717773,4278.589844,4257.307617,4455.384766,4475.641113,4352.179688,4403.333496,0.000000,4.000000,81.000000,,,,0.000000,4.000000,4.000000,4.000000,4.000000,4.000000,4.000000,4.000000,4.000000,4.000000,4.000000,4.000000,4.000000,4.000000,4.000000,100.000000,,,,,,,,,,,,,,,,,,,,,,,,,,,,,,,,,,,,,,,,,,,,,,,,,,,,,,,,,,,,,,,,,,,,,,,,,,,,,,,,,,,,,,
1676061365.876670,1676061365.877296,23.000000,0.000000,4286.282227,4271.538574,4285.769043,4295.641113,4274.230957,4275.000000,4294.871582,4277.051270,4274.358887,4266.794922,4435.256348,4473.846191,4353.461426,4402.563965,0.000000,4.000000,81.000000,,,,0.000000,4.000000,4.000000,4.000000,4.000000,4.000000,4.000000,4.000000,4.000000,4.000000,4.000000,4.000000,4.000000,4.000000,4.000000,100.000000,,,,,,,,,,,,,,,,,,,,,,,,,,,,,,,,,,,,,,,,,,,,,,,,,,,,,,,,,,,,,,,,,,,,,,,,,,,,,,,,,,,,,,
1676061365.884478,1676061365.885005,24.000000,0.000000,4288.589844,4276.025879,4299.487305,4314.358887,4273.205078,4273.589844,4298.717773,4291.410156,4277.820313,4268.846191,4440.512695,4476.410156,4362.948730,4408.077148,0.000000,4.000000,81.000000,,,,0.000000,4.000000,4.000000,4.000000,4.000000,4.000000,4.000000,4.000000,4.000000,4.000000,4.000000,4.000000,4.000000,4.000000,4.000000,100.000000,,,,,,,,,,,,,,,,,,,,,,,,,,,,,,,,,,,,,,,,,,,,,,,,,,,,,,,,,,,,,,,,,,,,,,,,,,,,,,,,,,,,,,
1676061365.892286,1676061365.892813,25.000000,0.000000,4301.282227,4293.846191,4313.077148,4314.358887,4288.333496,4273.717773,4307.563965,4307.051270,4292.692383,4274.358887,4482.948730,4490.128418,4376.282227,4426.922852,0.000000,4.000000,81.000000,,,,0.000000,4.000000,4.000000,4.000000,4.000000,4.000000,4.000000,4.000000,4.000000,4.000000,4.000000,4.000000,4.000000,4.000000,4.000000,100.000000,,,,,,,,,,,,,,,,,,,,,,,,,,,,,,,,,,,,,,,,,,,,,,,,,,,,,,,,,,,,,,,,,,,,,,,,,,,,,,,,,,,,,,
1676061365.900095,1676061365.900522,26.000000,0.000000,4312.307617,4294.871582,4312.436035,4300.769043,4292.307617,4271.410156,4305.512695,4310.769043,4303.333496,4286.410156,4495.641113,4506.666504,4383.461426,4443.589844,0.000000,4.000000,81.000000,,,,0.000000,4.000000,4.000000,4.000000,4.000000,4.000000,4.000000,4.000000,4.000000,4.000000,4.000000,4.000000,4.000000,4.000000,4.000000,100.000000,,,,,,,,,,,,,,,,,,,,,,,,,,,,,,,,,,,,,,,,,,,,,,,,,,,,,,,,,,,,,,,,,,,,,,,,,,,,,,,,,,,,,,
1676061365.907903,1676061365.908430,27.000000,0.000000,4318.974121,4290.384766,4311.794922,4309.102539,4285.897461,4270.512695,4301.538574,4311.410156,4298.846191,4295.128418,4471.922852,4506.282227,4390.641113,4447.436035,0.000000,4.000000,81.000000,,,,0.000000,4.000000,4.000000,4.000000,4.000000,4.000000,4.000000,4.000000,4.000000,4.000000,4.000000,4.000000,4.000000,4.000000,4.000000,100.000000,,,,,,,,,,,,,,,,,,,,,,,,,,,,,,,,,,,,,,,,,,,,,,,,,,,,,,,,,,,,,,,,,,,,,,,,,,,,,,,,,,,,,,
1676061365.915712,1676061365.916239,28.000000,0.000000,4321.025879,4300.512695,4312.436035,4319.102539,4286.410156,4268.205078,4302.948730,4316.666504,4291.282227,4300.000000,4465.128418,4496.410156,4401.282227,4452.307617,0.000000,4.000000,81.000000,,,,0.000000,4.000000,4.000000,4.000000,4.000000,4.000000,4.000000,4.000000,4.000000,4.000000,4.000000,4.000000,4.000000,4.000000,4.000000,100.000000,,,,,,,,,,,,,,,,,,,,,,,,,,,,,,,,,,,,,,,,,,,,,,,,,,,,,,,,,,,,,,,,,,,,,,,,,,,,,,,,,,,,,,
1676061365.923520,1676061365.924147,29.000000,0.000000,4306.153809,4297.051270,4302.179688,4306.666504,4284.102539,4268.205078,4308.974121,4319.743652,4291.922852,4290.512695,4469.102539,4489.487305,4394.743652,4446.666504,0.000000,4.000000,81.000000,,,,0.000000,4.000000,4.000000,4.000000,4.000000,4.000000,4.000000,4.000000,4.000000,4.000000,4.000000,4.000000,4.000000,4.000000,4.000000,100.000000,,,,,,,,,,,,,,,,,,,,,,,,,,,,,,,,,,,,,,,,,,,,,,,,,,,,,,,,,,,,,,,,,,,,,,,,,,,,,,,,,,,,,,
1676061365.931328,1676061365.931956,30.000000,0.000000,4293.205078,4281.153809,4290.769043,4299.743652,4273.333496,4274.743652,4310.000000,4304.871582,4284.487305,4266.410156,4458.974121,4482.051270,4368.077148,4424.487305,0.000000,4.000000,81.000000,,,,0.000000,4.000000,4.000000,4.000000,4.000000,4.000000,4.000000,4.000000,4.000000,4.000000,4.000000,4.000000,4.000000,4.000000,4.000000,100.000000,,,,,,,,,,,,,,,,,10.624777,24.620974,0.765609,0.258381,0.238311,9.370010,21.455315,0.418439,0.227894,0.188369,3.184156,9.245008,0.276253,0.096896,0.208262,3.199054,8.378394,0.238285,0.145116,0.213216,8.278803,2.255877,0.269438,0.368305,0.433128,3.498592,2.645262,0.404881,0.126032,0.173847,5.988132,5.959949,1.154564,0.225740,0.348575,6.396881,9.384613,2.005209,0.364607,0.399671,1.607136,2.610673,0.522834,0.145631,0.170911,7.975673,4.025759,0.905245,0.381757,0.417942,8.246264,6.445043,0.905483,1.324402,1.210843,6.164890,5.077260,0.522582,0.269229,0.194853,7.579272,9.308271,0.807287,0.672970,0.852880,8.659048,21.520889,0.913854,0.368370,0.491962
1676061365.939137,1676061365.939864,31.000000,0.000000,4290.641113,4274.871582,4282.436035,4303.205078,4275.769043,4283.077148,4301.410156,4283.717773,4269.487305,4251.666504,4452.563965,4475.128418,4352.051270,4415.128418,0.000000,4.000000,81.000000,,,,0.000000,4.000000,4.000000,4.000000,4.000000,4.000000,4.000000,4.000000,4.000000,4.000000,4.000000,4.000000,4.000000,4.000000,4.000000,100.000000,,,,,,,,,,,,,,,,,,,,,,,,,,,,,,,,,,,,,,,,,,,,,,,,,,,,,,,,,,,,,,,,,,,,,,,,,,,,,,,,,,,,,,
1676061365.946945,1676061365.947672,32.000000,0.000000,4280.000000,4273.846191,4276.153809,4300.769043,4291.410156,4284.358887,4296.794922,4280.897461,4266.922852,4247.692383,4449.487305,4468.077148,4346.153809,4415.897461,0.000000,4.000000,81.000000,,,,0.000000,4.000000,4.000000,4.000000,4.000000,4.000000,4.000000,4.000000,4.000000,4.000000,4.000000,4.000000,4.000000,4.000000,4.000000,100.000000,,,,,,,,,,,,,,,,,,,,,,,,,,,,,,,,,,,,,,,,,,,,,,,,,,,,,,,,,,,,,,,,,,,,,,,,,,,,,,,,,,,,,,
1676061365.954753,1676061365.955481,33.000000,0.000000,4270.128418,4278.077148,4281.922852,4298.205078,4293.974121,4278.333496,4299.102539,4284.102539,4272.692383,4237.820313,4431.153809,4463.846191,4335.384766,4399.871582,0.000000,4.000000,81.000000,,,,0.000000,4.000000,4.000000,4.000000,4.000000,4.000000,4.000000,4.000000,4.000000,4.000000,4.000000,4.000000,4.000000,4.000000,4.000000,100.000000,,,,,,,,,,,,,,,,,,,,,,,,,,,,,,,,,,,,,,,,,,,,,,,,,,,,,,,,,,,,,,,,,,,,,,,,,,,,,,,,,,,,,,
1676061365.962562,1676061365.963189,34.000000,0.000000,4279.743652,4290.128418,4291.922852,4297.436035,4287.948730,4275.769043,4297.948730,4280.384766,4274.743652,4230.384766,4426.025879,4468.461426,4337.051270,4394.487305,0.000000,4.000000,81.000000,,,,0.000000,4.000000,4.000000,4.000000,4.000000,4.000000,4.000000,4.000000,4.000000,4.000000,4.000000,4.000000,4.000000,4.000000,4.000000,100.000000,,,,,,,,,,,,,,,,,,,,,,,,,,,,,,,,,,,,,,,,,,,,,,,,,,,,,,,,,,,,,,,,,,,,,,,,,,,,,,,,,,,,,,
1676061365.970370,1676061365.971098,35.000000,0.000000,4286.666504,4285.384766,4290.000000,4294.358887,4285.384766,4275.641113,4291.410156,4280.512695,4275.769043,4236.794922,4442.051270,4478.077148,4349.230957,4411.025879,0.000000,4.000000,81.000000,,,,0.000000,4.000000,4.000000,4.000000,4.000000,4.000000,4.000000,4.000000,4.000000,4.000000,4.000000,4.000000,4.000000,4.000000,4.000000,100.000000,,,,,,,,,,,,,,,,,,,,,,,,,,,,,,,,,,,,,,,,,,,,,,,,,,,,,,,,,,,,,,,,,,,,,,,,,,,,,,,,,,,,,,
1676061365.978178,1676061365.978906,36.000000,0.000000,4275.641113,4267.436035,4287.179688,4296.538574,4284.487305,4271.922852,4291.538574,4286.538574,4279.487305,4251.794922,4451.282227,4477.307617,4357.051270,4415.641113,0.000000,4.000000,81.000000,,,,0.000000,4.000000,4.000000,4.000000,4.000000,4.000000,4.000000,4.000000,4.000000,4.000000,4.000000,4.000000,4.000000,4.000000,4.000000,100.000000,,,,,,,,,,,,,,,,,,,,,,,,,,,,,,,,,,,,,,,,,,,,,,,,,,,,,,,,,,,,,,,,,,,,,,,,,,,,,,,,,,,,,,
1676061365.985987,1676061365.986815,37.000000,0.000000,4266.922852,4262.179688,4291.922852,4297.179688,4279.487305,4266.153809,4299.743652,4298.846191,4288.717773,4257.436035,4454.871582,4474.743652,4356.538574,4406.282227,0.000000,4.000000,81.000000,,,,0.000000,4.000000,4.000000,4.000000,4.000000,4.000000,4.000000,4.000000,4.000000,4.000000,4.000000,4.000000,4.000000,4.000000,4.000000,100.000000,,,,,,,,,,,,,,,,,,,,,,,,,,,,,,,,,,,,,,,,,,,,,,,,,,,,,,,,,,,,,,,,,,,,,,,,,,,,,,,,,,,,,,
1676061365.993795,1676061365.994623,38.000000,0.000000,4269.487305,4266.025879,4294.102539,4290.512695,4266.666504,4265.384766,4305.384766,4310.128418,4298.205078,4259.615234,4465.769043,4484.358887,4353.717773,4405.769043,0.000000,4.000000,81.000000,,,,0.000000,4.000000,4.000000,4.000000,4.000000,4.000000,4.000000,4.000000,4.000000,4.000000,4.000000,4.000000,4.000000,4.000000,4.000000,100.000000,,,,,,,,,,,,,,,,,,,,,,,,,,,,,,,,,,,,,,,,,,,,,,,,,,,,,,,,,,,,,,,,,,,,,,,,,,,,,,,,,,,,,,
1676061366.001604,1676061366.002531,39.000000,0.000000,4276.538574,4268.333496,4294.230957,4291.025879,4257.820313,4268.846191,4301.666504,4305.897461,4295.000000,4273.077148,4469.358887,4494.102539,4361.025879,4418.846191,0.000000,4.000000,81.000000,,,,0.000000,4.000000,4.000000,4.000000,4.000000,4.000000,4.000000,4.000000,4.000000,4.000000,4.000000,4.000000,4.000000,4.000000,4.000000,100.000000,,,,,,,,,,,,,,,,,,,,,,,,,,,,,,,,,,,,,,,,,,,,,,,,,,,,,,,,,,,,,,,,,,,,,,,,,,,,,,,,,,,,,,
1676061366.009412,1676061366.010340,40.000000,0.000000,4280.128418,4269.102539,4295.128418,4300.897461,4267.948730,4271.922852,4294.230957,4301.153809,4286.282227,4280.641113,4458.717773,4488.717773,4373.333496,4426.025879,0.000000,4.000000,81.000000,,,,0.000000,4.000000,4.000000,4.000000,4.000000,4.000000,4.000000,4.000000,4.000000,4.000000,4.000000,4.000000,4.000000,4.000000,4.000000,100.000000,,,,,,,,,,,,,,,,,,,,,,,,,,,,,,,,,,,,,,,,,,,,,,,,,,,,,,,,,,,,,,,,,,,,,,,,,,,,,,,,,,,,,,
1676061366.017220,1676061366.018248,41.000000,0.000000,4274.743652,4270.512695,4296.282227,4300.641113,4281.794922,4270.384766,4289.230957,4299.743652,4284.358887,4271.538574,4444.743652,4475.641113,4371.153809,4413.717773,0.000000,4.000000,81.000000,,,,0.000000,4.000000,4.000000,4.000000,4.000000,4.000000,4.000000,4.000000,4.000000,4.000000,4.000000,4.000000,4.000000,4.000000,4.000000,100.000000,,,,,,,,,,,,,,,,,,,,,,,,,,,,,,,,,,,,,,,,,,,,,,,,,,,,,,,,,,,,,,,,,,,,,,,,,,,,,,,,,,,,,,
1676061366.025029,1676061366.026057,42.000000,0.000000,4277.179688,4276.410156,4298.461426,4295.769043,4282.307617,4268.717773,4288.077148,4286.025879,4284.230957,4263.461426,4445.512695,4475.384766,4351.794922,4402.307617,0.000000,4.000000,81.000000,,,,0.000000,4.000000,4.000000,4.000000,4.000000,4.000000,4.000000,4.000000,4.000000,4.000000,4.000000,4.000000,4.000000,4.000000,4.000000,100.000000,,,,,,,,,,,,,,,,,,,,,,,,,,,,,,,,,,,,,,,,,,,,,,,,,,,,,,,,,,,,,,,,,,,,,,,,,,,,,,,,,,,,,,
1676061366.032837,1676061366.033965,43.000000,0.000000,4286.666504,4278.205078,4294.615234,4300.512695,4281.666504,4269.615234,4285.512695,4271.922852,4279.102539,4256.025879,4450.769043,4474.487305,4337.436035,4403.974121,0.000000,4.000000,81.000000,,,,0.000000,4.000000,4.000000,4.000000,4.000000,4.000000,4.000000,4.000000,4.000000,4.000000,4.000000,4.000000,4.000000,4.000000,4.000000,100.000000,,,,,,,,,,,,,,,,,,,,,,,,,,,,,,,,,,,,,,,,,,,,,,,,,,,,,,,,,,,,,,,,,,,,,,,,,,,,,,,,,,,,,,
1676061366.040645,1676061366.041773,44.000000,0.000000,4279.487305,4268.205078,4285.769043,4300.384766,4286.794922,4270.128418,4277.179688,4265.512695,4266.538574,4242.948730,4431.025879,4459.230957,4339.102539,4401.666504,0.000000,4.000000,81.000000,,,,0.000000,4.000000,4.000000,4.000000,4.000000,4.000000,4.000000,4.000000,4.000000,4.000000,4.000000,4.000000,4.000000,4.000000,4.000000,100.000000,,,,,,,,,,,,,,,,,,,,,,,,,,,,,,,,,,,,,,,,,,,,,,,,,,,,,,,,,,,,,,,,,,,,,,,,,,,,,,,,,,,,,,
1676061366.048454,1676061366.049682,45.000000,0.000000,4264.871582,4263.717773,4286.282227,4295.000000,4283.205078,4269.871582,4274.743652,4257.692383,4255.641113,4231.153809,4413.205078,4450.256348,4341.410156,4391.538574,0.000000,4.000000,81.000000,,,,0.000000,4.000000,4.000000,4.000000,4.000000,4.000000,4.000000,4.000000,4.000000,4.000000,4.000000,4.000000,4.000000,4.000000,4.000000,100.000000,,,,,,,,,,,,,,,,,,,,,,,,,,,,,,,,,,,,,,,,,,,,,,,,,,,,,,,,,,,,,,,,,,,,,,,,,,,,,,,,,,,,,,
1676061366.056262,1676061366.057490,46.000000,0.000000,4271.922852,4274.230957,4297.820313,4297.436035,4277.307617,4273.077148,4287.179688,4262.563965,4264.102539,4224.358887,4426.538574,4460.256348,4341.538574,4390.897461,0.000000,4.000000,81.000000,,,,0.000000,4.000000,4.000000,4.000000,4.000000,4.000000,4.000000,4.000000,4.000000,4.000000,4.000000,4.000000,4.000000,4.000000,4.000000,100.000000,,,,,,,,,,,,,,,,,8.384041,25.858604,0.709713,0.248727,0.206094,8.457717,23.580137,0.471159,0.227285,0.186255,2.307111,10.090970,0.258719,0.092216,0.210559,2.765539,9.376552,0.223624,0.156328,0.205264,7.467828,2.484687,0.354994,0.366968,0.445939,2.974152,2.869948,0.496199,0.131185,0.156760,5.439479,6.850483,1.378183,0.258201,0.351097,4.563764,10.241129,2.329699,0.381312,0.405422,1.188967,2.738623,0.531808,0.104427,0.179159,7.042080,4.103656,1.023547,0.416572,0.432352,6.606867,6.675912,1.006038,1.413304,1.228472,4.158578,5.158966,0.605935,0.276278,0.195340,6.932873,9.885613,0.979520,0.685804,0.886655,6.569818,22.527098,0.930228,0.431112,0.484816
1676061366.064071,1676061366.065199,47.000000,0.000000,4291.538574,4281.153809,4304.230957,4303.205078,4280.897461,4281.538574,4301.025879,4282.948730,4285.128418,4232.307617,4442.692383,4474.102539,4352.051270,4402.179688,0.000000,4.000000,81.000000,,,,0.000000,4.000000,4.000000,4.000000,4.000000,4.000000,4.000000,4.000000,4.000000,4.000000,4.000000,4.000000,4.000000,4.000000,4.000000,100.000000,,,,,,,,,,,,,,,,,,,,,,,,,,,,,,,,,,,,,,,,,,,,,,,,,,,,,,,,,,,,,,,,,,,,,,,,,,,,,,,,,,,,,,
1676061366.071879,1676061366.073007,48.000000,0.000000,4296.282227,4273.846191,4300.384766,4308.461426,4283.589844,4281.410156,4300.256348,4294.743652,4288.589844,4248.846191,4447.563965,4477.436035,4353.333496,4413.333496,0.000000,4.000000,81.000000,,,,0.000000,4.000000,4.000000,4.000000,4.000000,4.000000,4.000000,4.000000,4.000000,4.000000,4.000000,4.000000,4.000000,4.000000,4.000000,100.000000,,,,,,,,,,,,,,,,,,,,,,,,,,,,,,,,,,,,,,,,,,,,,,,,,,,,,,,,,,,,,,,,,,,,,,,,,,,,,,,,,,,,,,
1676061366.079687,1676061366.080716,49.000000,0.000000,4284.871582,4268.717773,4295.512695,4307.179688,4277.563965,4269.871582,4295.256348,4297.179688,4280.000000,4253.205078,4452.563965,4472.820313,4341.410156,4416.538574,0.000000,4.000000,81.000000,,,,0.000000,4.000000,4.000000,4.000000,4.000000,4.000000,4.000000,4.000000,4.000000,4.000000,4.000000,4.000000,4.000000,4.000000,4.000000,100.000000,,,,,,,,,,,,,,,,,,,,,,,,,,,,,,,,,,,,,,,,,,,,,,,,,,,,,,,,,,,,,,,,,,,,,,,,,,,,,,,,,,,,,,
1676061366.087496,1676061366.088524,50.000000,0.000000,4274.487305,4272.179688,4296.666504,4293.717773,4267.051270,4265.512695,4297.179688,4296.410156,4286.282227,4249.102539,4459.230957,4472.179688,4348.717773,4412.692383,0.000000,4.000000,81.000000,,,,0.000000,4.000000,4.000000,4.000000,4.000000,4.000000,4.000000,4.000000,4.000000,4.000000,4.000000,4.000000,4.000000,4.000000,4.000000,100.000000,,,,,,,,,,,,,,,,,,,,,,,,,,,,,,,,,,,,,,,,,,,,,,,,,,,,,,,,,,,,,,,,,,,,,,,,,,,,,,,,,,,,,,
