title:Psychopy_Mal_1_2023-02-10T122928.411504, start timestamp:1676060968.328511, stop timestamp:1676061029.335505, headset type:EPOCX, headset serial:E2020A42, headset firmware:720, channels:125, sampling rate:eeg_128;pow_8, samples:7814      , version:2.1, 
Timestamp,OriginalTimestamp,EEG.Counter,EEG.Interpolated,EEG.AF3,EEG.F7,EEG.F3,EEG.FC5,EEG.T7,EEG.P7,EEG.O1,EEG.O2,EEG.P8,EEG.T8,EEG.FC6,EEG.F4,EEG.F8,EEG.AF4,EEG.RawCq,EEG.Battery,EEG.BatteryPercent,MarkerIndex,MarkerType,MarkerValueInt,EEG.MarkerHardware,CQ.AF3,CQ.F7,CQ.F3,CQ.FC5,CQ.T7,CQ.P7,CQ.O1,CQ.O2,CQ.P8,CQ.T8,CQ.FC6,CQ.F4,CQ.F8,CQ.AF4,CQ.Overall,EQ.SampleRateQuality,EQ.OVERALL,EQ.AF3,EQ.F7,EQ.F3,EQ.FC5,EQ.T7,EQ.P7,EQ.O1,EQ.O2,EQ.P8,EQ.T8,EQ.FC6,EQ.F4,EQ.F8,EQ.AF4,POW.AF3.Theta,POW.AF3.Alpha,POW.AF3.BetaL,POW.AF3.BetaH,POW.AF3.Gamma,POW.F7.Theta,POW.F7.Alpha,POW.F7.BetaL,POW.F7.BetaH,POW.F7.Gamma,POW.F3.Theta,POW.F3.Alpha,POW.F3.BetaL,POW.F3.BetaH,POW.F3.Gamma,POW.FC5.Theta,POW.FC5.Alpha,POW.FC5.BetaL,POW.FC5.BetaH,POW.FC5.Gamma,POW.T7.Theta,POW.T7.Alpha,POW.T7.BetaL,POW.T7.BetaH,POW.T7.Gamma,POW.P7.Theta,POW.P7.Alpha,POW.P7.BetaL,POW.P7.BetaH,POW.P7.Gamma,POW.O1.Theta,POW.O1.Alpha,POW.O1.BetaL,POW.O1.BetaH,POW.O1.Gamma,POW.O2.Theta,POW.O2.Alpha,POW.O2.BetaL,POW.O2.BetaH,POW.O2.Gamma,POW.P8.Theta,POW.P8.Alpha,POW.P8.BetaL,POW.P8.BetaH,POW.P8.Gamma,POW.T8.Theta,POW.T8.Alpha,POW.T8.BetaL,POW.T8.BetaH,POW.T8.Gamma,POW.FC6.Theta,POW.FC6.Alpha,POW.FC6.BetaL,POW.FC6.BetaH,POW.FC6.Gamma,POW.F4.Theta,POW.F4.Alpha,POW.F4.BetaL,POW.F4.BetaH,POW.F4.Gamma,POW.F8.Theta,POW.F8.Alpha,POW.F8.BetaL,POW.F8.BetaH,POW.F8.Gamma,POW.AF4.Theta,POW.AF4.Alpha,POW.AF4.BetaL,POW.AF4.BetaH,POW.AF4.Gamma
1676060968.328511,1676060968.328637,54.000000,0.000000,4285.384766,4274.871582,4306.538574,4311.153809,4290.897461,4288.077148,4281.025879,4309.102539,4277.051270,4276.282227,4455.897461,4504.871582,4347.820313,4391.410156,0.000000,4.000000,83.000000,,,,0.000000,4.000000,4.000000,4.000000,4.000000,4.000000,4.000000,4.000000,4.000000,4.000000,4.000000,4.000000,4.000000,4.000000,4.000000,100.000000,,,,,,,,,,,,,,,,,,,,,,,,,,,,,,,,,,,,,,,,,,,,,,,,,,,,,,,,,,,,,,,,,,,,,,,,,,,,,,,,,,,,,,
1676060968.336320,1676060968.336546,55.000000,0.000000,4287.563965,4273.461426,4312.820313,4305.512695,4278.589844,4283.077148,4284.743652,4309.102539,4276.410156,4259.615234,4454.871582,4508.333496,4346.666504,4389.871582,0.000000,4.000000,83.000000,,,,0.000000,4.000000,4.000000,4.000000,4.000000,4.000000,4.000000,4.000000,4.000000,4.000000,4.000000,4.000000,4.000000,4.000000,4.000000,100.000000,,,,,,,,,,,,,,,,,,,,,,,,,,,,,,,,,,,,,,,,,,,,,,,,,,,,,,,,,,,,,,,,,,,,,,,,,,,,,,,,,,,,,,
1676060968.344128,1676060968.344354,56.000000,0.000000,4303.846191,4277.948730,4327.307617,4309.615234,4285.769043,4292.051270,4294.487305,4310.000000,4288.461426,4274.230957,4475.769043,4530.000000,4368.717773,4406.025879,0.000000,4.000000,83.000000,,,,0.000000,4.000000,4.000000,4.000000,4.000000,4.000000,4.000000,4.000000,4.000000,4.000000,4.000000,4.000000,4.000000,4.000000,4.000000,100.000000,,,,,,,,,,,,,,,,,,,,,,,,,,,,,,,,,,,,,,,,,,,,,,,,,,,,,,,,,,,,,,,,,,,,,,,,,,,,,,,,,,,,,,
1676060968.351936,1676060968.352263,57.000000,0.000000,4305.769043,4282.948730,4331.282227,4322.948730,4302.307617,4298.717773,4300.641113,4315.512695,4296.922852,4289.871582,4484.743652,4542.948730,4376.666504,4414.358887,0.000000,4.000000,83.000000,,,,0.000000,4.000000,4.000000,4.000000,4.000000,4.000000,4.000000,4.000000,4.000000,4.000000,4.000000,4.000000,4.000000,4.000000,4.000000,100.000000,,,,,,,,,,,,,,,,,,,,,,,,,,,,,,,,,,,,,,,,,,,,,,,,,,,,,,,,,,,,,,,,,,,,,,,,,,,,,,,,,,,,,,
1676060968.359745,1676060968.360071,58.000000,0.000000,4288.589844,4278.077148,4314.615234,4316.410156,4298.974121,4284.743652,4293.205078,4313.589844,4283.846191,4276.153809,4467.307617,4525.000000,4351.794922,4396.922852,0.000000,4.000000,83.000000,,,,0.000000,4.000000,4.000000,4.000000,4.000000,4.000000,4.000000,4.000000,4.000000,4.000000,4.000000,4.000000,4.000000,4.000000,4.000000,100.000000,,,,,,,,,,,,,,,,,,,,,,,,,,,,,,,,,,,,,,,,,,,,,,,,,,,,,,,,,,,,,,,,,,,,,,,,,,,,,,,,,,,,,,
1676060968.367553,1676060968.367979,59.000000,0.000000,4293.589844,4276.666504,4316.025879,4312.051270,4289.743652,4282.820313,4295.384766,4313.974121,4281.922852,4280.128418,4474.487305,4531.025879,4354.358887,4398.717773,0.000000,4.000000,83.000000,,,,0.000000,4.000000,4.000000,4.000000,4.000000,4.000000,4.000000,4.000000,4.000000,4.000000,4.000000,4.000000,4.000000,4.000000,4.000000,100.000000,,,,,,,,,,,,,,,,,,,,,,,,,,,,,,,,,,,,,,,,,,,,,,,,,,,,,,,,,,,,,,,,,,,,,,,,,,,,,,,,,,,,,,
1676060968.375362,1676060968.375788,60.000000,0.000000,4320.384766,4292.179688,4342.179688,4329.102539,4299.358887,4299.487305,4316.025879,4326.538574,4301.922852,4312.179688,4507.692383,4565.000000,4392.307617,4427.307617,0.000000,4.000000,83.000000,,,,0.000000,4.000000,4.000000,4.000000,4.000000,4.000000,4.000000,4.000000,4.000000,4.000000,4.000000,4.000000,4.000000,4.000000,4.000000,100.000000,,,,,,,,,,,,,,,,,,,,,,,,,,,,,,,,,,,,,,,,,,,,,,,,,,,,,,,,,,,,,,,,,,,,,,,,,,,,,,,,,,,,,,
1676060968.383170,1676060968.383696,61.000000,0.000000,4323.461426,4301.153809,4347.692383,4336.025879,4313.205078,4306.153809,4322.051270,4332.563965,4308.333496,4312.692383,4510.641113,4567.436035,4398.974121,4436.025879,0.000000,4.000000,83.000000,,,,0.000000,4.000000,4.000000,4.000000,4.000000,4.000000,4.000000,4.000000,4.000000,4.000000,4.000000,4.000000,4.000000,4.000000,4.000000,100.000000,,,,,,,,,,,,,,,,,,,,,,,,,,,,,,,,,,,,,,,,,,,,,,,,,,,,,,,,,,,,,,,,,,,,,,,,,,,,,,,,,,,,,,
1676060968.390978,1676060968.391505,62.000000,0.000000,4309.358887,4290.384766,4330.128418,4327.692383,4306.794922,4298.077148,4302.948730,4322.051270,4294.230957,4294.102539,4490.512695,4551.666504,4378.717773,4426.282227,0.000000,4.000000,83.000000,,,,0.000000,4.000000,4.000000,4.000000,4.000000,4.000000,4.000000,4.000000,4.000000,4.000000,4.000000,4.000000,4.000000,4.000000,4.000000,100.000000,,,,,,,,,,,,,,,,,1.425775,2.487376,0.439093,0.477812,0.196192,0.751073,1.569833,0.393585,0.437948,0.359194,1.194433,3.475128,0.504991,0.512363,0.322537,0.911155,1.848663,0.302073,0.368246,0.267533,0.484081,0.316351,0.280373,0.164963,0.383078,0.603247,0.342213,0.132853,0.258677,0.176848,0.508644,1.361382,0.516723,0.410066,0.273721,0.346747,0.338743,0.221423,0.268609,0.140556,0.471738,1.137571,0.337634,0.485022,0.215604,0.773019,0.748901,0.936459,0.839859,1.026671,1.743547,1.395068,0.448528,0.584193,0.491941,2.693446,3.567796,0.442548,0.644580,0.312930,1.523766,1.631175,0.522025,0.444069,0.509745,2.335239,2.509840,0.615650,0.638353,0.294986
1676060968.398787,1676060968.399413,63.000000,0.000000,4310.128418,4278.205078,4325.256348,4319.871582,4288.974121,4282.948730,4292.307617,4313.333496,4285.000000,4284.102539,4484.615234,4551.538574,4375.256348,4423.846191,0.000000,4.000000,83.000000,,,,0.000000,4.000000,4.000000,4.000000,4.000000,4.000000,4.000000,4.000000,4.000000,4.000000,4.000000,4.000000,4.000000,4.000000,4.000000,100.000000,,,,,,,,,,,,,,,,,,,,,,,,,,,,,,,,,,,,,,,,,,,,,,,,,,,,,,,,,,,,,,,,,,,,,,,,,,,,,,,,,,,,,,
1676060968.406595,1676060968.407221,64.000000,0.000000,4308.717773,4277.820313,4326.410156,4312.820313,4292.436035,4280.256348,4296.282227,4314.102539,4285.256348,4270.128418,4481.282227,4546.666504,4369.358887,4415.384766,2561.000000,4.000000,83.000000,,,,0.000000,4.000000,4.000000,4.000000,4.000000,4.000000,4.000000,4.000000,4.000000,4.000000,4.000000,4.000000,4.000000,4.000000,4.000000,100.000000,,,,,,,,,,,,,,,,,,,,,,,,,,,,,,,,,,,,,,,,,,,,,,,,,,,,,,,,,,,,,,,,,,,,,,,,,,,,,,,,,,,,,,
1676060968.414404,1676060968.414930,65.000000,0.000000,4295.512695,4280.256348,4313.846191,4312.307617,4299.230957,4291.153809,4291.282227,4311.922852,4278.205078,4269.615234,4467.820313,4522.563965,4356.025879,4401.666504,2501.000000,4.000000,83.000000,,,,0.000000,4.000000,4.000000,4.000000,4.000000,4.000000,4.000000,4.000000,4.000000,4.000000,4.000000,4.000000,4.000000,4.000000,4.000000,100.000000,,,,,,,,,,,,,,,,,,,,,,,,,,,,,,,,,,,,,,,,,,,,,,,,,,,,,,,,,,,,,,,,,,,,,,,,,,,,,,,,,,,,,,
1676060968.422212,1676060968.422738,66.000000,0.000000,4292.563965,4280.256348,4309.615234,4316.538574,4287.436035,4295.128418,4289.743652,4310.769043,4272.948730,4274.743652,4458.974121,4508.846191,4352.820313,4397.563965,2361.000000,4.000000,83.000000,,,,0.000000,4.000000,4.000000,4.000000,4.000000,4.000000,4.000000,4.000000,4.000000,4.000000,4.000000,4.000000,4.000000,4.000000,4.000000,100.000000,,,,,,,,,,,,,,,,,,,,,,,,,,,,,,,,,,,,,,,,,,,,,,,,,,,,,,,,,,,,,,,,,,,,,,,,,,,,,,,,,,,,,,
1676060968.430020,1676060968.430447,67.000000,0.000000,4293.974121,4277.692383,4319.358887,4309.871582,4283.974121,4284.871582,4301.153809,4313.974121,4280.384766,4261.282227,4456.025879,4512.820313,4344.743652,4394.743652,2473.000000,4.000000,83.000000,,,,0.000000,4.000000,4.000000,4.000000,4.000000,4.000000,4.000000,4.000000,4.000000,4.000000,4.000000,4.000000,4.000000,4.000000,4.000000,100.000000,,,,,,,,,,,,,,,,,,,,,,,,,,,,,,,,,,,,,,,,,,,,,,,,,,,,,,,,,,,,,,,,,,,,,,,,,,,,,,,,,,,,,,
1676060968.437829,1676060968.438255,68.000000,0.000000,4296.538574,4274.871582,4324.615234,4310.512695,4293.461426,4285.000000,4311.282227,4316.794922,4290.256348,4264.871582,4458.717773,4522.692383,4349.487305,4395.897461,2515.000000,4.000000,83.000000,,,,0.000000,4.000000,4.000000,4.000000,4.000000,4.000000,4.000000,4.000000,4.000000,4.000000,4.000000,4.000000,4.000000,4.000000,4.000000,100.000000,,,,,,,,,,,,,,,,,,,,,,,,,,,,,,,,,,,,,,,,,,,,,,,,,,,,,,,,,,,,,,,,,,,,,,,,,,,,,,,,,,,,,,
1676060968.445637,1676060968.445964,69.000000,0.000000,4303.717773,4276.666504,4325.512695,4322.948730,4296.538574,4294.487305,4308.717773,4315.641113,4287.051270,4278.589844,4464.230957,4526.025879,4363.589844,4399.230957,2142.000000,4.000000,83.000000,,,,0.000000,4.000000,4.000000,4.000000,4.000000,4.000000,4.000000,4.000000,4.000000,4.000000,4.000000,4.000000,4.000000,4.000000,4.000000,100.000000,,,,,,,,,,,,,,,,,,,,,,,,,,,,,,,,,,,,,,,,,,,,,,,,,,,,,,,,,,,,,,,,,,,,,,,,,,,,,,,,,,,,,,
1676060968.453446,1676060968.453772,70.000000,0.000000,4303.077148,4279.615234,4325.641113,4321.410156,4294.615234,4291.922852,4301.794922,4313.205078,4279.743652,4257.692383,4460.000000,4519.615234,4352.692383,4397.563965,2416.000000,4.000000,83.000000,,,,0.000000,4.000000,4.000000,4.000000,4.000000,4.000000,4.000000,4.000000,4.000000,4.000000,4.000000,4.000000,4.000000,4.000000,4.000000,100.000000,,,,,,,,,,,,,,,,,,,,,,,,,,,,,,,,,,,,,,,,,,,,,,,,,,,,,,,,,,,,,,,,,,,,,,,,,,,,,,,,,,,,,,
1676060968.461254,1676060968.461481,71.000000,0.000000,4297.563965,4281.410156,4322.563965,4310.641113,4286.794922,4281.538574,4291.666504,4308.077148,4275.384766,4241.666504,4457.179688,4515.000000,4348.589844,4402.692383,1788.000000,4.000000,83.000000,,,,0.000000,4.000000,4.000000,4.000000,4.000000,4.000000,4.000000,4.000000,4.000000,4.000000,4.000000,4.000000,4.000000,4.000000,4.000000,100.000000,,,,,,,,,,,,,,,,,,,,,,,,,,,,,,,,,,,,,,,,,,,,,,,,,,,,,,,,,,,,,,,,,,,,,,,,,,,,,,,,,,,,,,
1676060968.469062,1676060968.469289,72.000000,0.000000,4301.410156,4280.000000,4322.948730,4310.000000,4277.436035,4276.282227,4283.974121,4306.025879,4272.948730,4263.205078,4465.384766,4521.025879,4367.820313,4413.077148,2244.000000,4.000000,83.000000,,,,0.000000,4.000000,4.000000,4.000000,4.000000,4.000000,4.000000,4.000000,4.000000,4.000000,4.000000,4.000000,4.000000,4.000000,4.000000,100.000000,,,,,,,,,,,,,,,,,,,,,,,,,,,,,,,,,,,,,,,,,,,,,,,,,,,,,,,,,,,,,,,,,,,,,,,,,,,,,,,,,,,,,,
1676060968.476871,1676060968.476998,73.000000,0.000000,4308.974121,4276.794922,4328.077148,4318.974121,4288.205078,4285.384766,4288.077148,4314.871582,4283.077148,4283.717773,4477.563965,4531.794922,4373.461426,4418.461426,2499.000000,4.000000,83.000000,,,,0.000000,4.000000,4.000000,4.000000,4.000000,4.000000,4.000000,4.000000,4.000000,4.000000,4.000000,4.000000,4.000000,4.000000,4.000000,100.000000,,,,,,,,,,,,,,,,,,,,,,,,,,,,,,,,,,,,,,,,,,,,,,,,,,,,,,,,,,,,,,,,,,,,,,,,,,,,,,,,,,,,,,
1676060968.484679,1676060968.484806,74.000000,0.000000,4303.846191,4277.436035,4328.077148,4320.897461,4302.948730,4297.436035,4296.410156,4317.563965,4288.077148,4282.563965,4471.153809,4530.897461,4357.051270,4412.179688,2703.000000,4.000000,83.000000,,,,0.000000,4.000000,4.000000,4.000000,4.000000,4.000000,4.000000,4.000000,4.000000,4.000000,4.000000,4.000000,4.000000,4.000000,4.000000,100.000000,,,,,,,,,,,,,,,,,,,,,,,,,,,,,,,,,,,,,,,,,,,,,,,,,,,,,,,,,,,,,,,,,,,,,,,,,,,,,,,,,,,,,,
1676060968.492488,1676060968.492515,75.000000,0.000000,4294.487305,4280.000000,4324.487305,4312.436035,4293.717773,4297.948730,4302.692383,4312.820313,4280.128418,4277.692383,4456.025879,4520.769043,4347.948730,4402.307617,2672.000000,4.000000,83.000000,,,,0.000000,4.000000,4.000000,4.000000,4.000000,4.000000,4.000000,4.000000,4.000000,4.000000,4.000000,4.000000,4.000000,4.000000,4.000000,100.000000,,,,,,,,,,,,,,,,,,,,,,,,,,,,,,,,,,,,,,,,,,,,,,,,,,,,,,,,,,,,,,,,,,,,,,,,,,,,,,,,,,,,,,
1676060968.500296,1676060968.500323,76.000000,0.000000,4299.230957,4279.871582,4325.128418,4312.948730,4290.128418,4295.512695,4310.000000,4315.128418,4285.641113,4275.512695,4462.563965,4520.000000,4359.871582,4405.641113,3034.000000,4.000000,83.000000,,,,0.000000,4.000000,4.000000,4.000000,4.000000,4.000000,4.000000,4.000000,4.000000,4.000000,4.000000,4.000000,4.000000,4.000000,4.000000,100.000000,,,,,,,,,,,,,,,,,,,,,,,,,,,,,,,,,,,,,,,,,,,,,,,,,,,,,,,,,,,,,,,,,,,,,,,,,,,,,,,,,,,,,,
1676060968.508104,1676060968.508032,77.000000,0.000000,4310.128418,4277.179688,4330.384766,4323.205078,4302.051270,4301.666504,4313.461426,4318.461426,4297.179688,4269.102539,4472.948730,4530.512695,4366.410156,4414.871582,3286.000000,4.000000,83.000000,,,,0.000000,4.000000,4.000000,4.000000,4.000000,4.000000,4.000000,4.000000,4.000000,4.000000,4.000000,4.000000,4.000000,4.000000,4.000000,100.000000,,,,,,,,,,,,,,,,,,,,,,,,,,,,,,,,,,,,,,,,,,,,,,,,,,,,,,,,,,,,,,,,,,,,,,,,,,,,,,,,,,,,,,
1676060968.515913,1676060968.515940,78.000000,0.000000,4311.666504,4282.820313,4335.128418,4329.871582,4303.974121,4308.333496,4309.871582,4313.846191,4296.282227,4265.128418,4470.384766,4538.717773,4357.051270,4415.128418,2703.000000,4.000000,83.000000,,,,0.000000,4.000000,4.000000,4.000000,4.000000,4.000000,4.000000,4.000000,4.000000,4.000000,4.000000,4.000000,4.000000,4.000000,4.000000,100.000000,1.000000,91.666664,4.000000,4.000000,4.000000,4.000000,4.000000,4.000000,4.000000,4.000000,4.000000,3.000000,4.000000,4.000000,4.000000,4.000000,1.408063,2.686476,0.380745,0.450034,0.193202,0.825347,1.680405,0.346477,0.421013,0.341364,1.149487,3.686536,0.419830,0.545413,0.305753,1.040202,1.966237,0.298453,0.366417,0.281902,0.507624,0.357224,0.301990,0.187551,0.377219,0.567883,0.337566,0.159648,0.265885,0.155490,0.460066,1.037669,0.485195,0.446749,0.267232,0.382941,0.296722,0.219445,0.267859,0.142586,0.435400,1.162377,0.368747,0.475694,0.209136,0.763862,0.779735,1.012364,0.762640,1.076401,1.924605,1.250407,0.363454,0.597731,0.527793,2.915081,3.559833,0.410996,0.671686,0.310196,1.523462,1.337662,0.413677,0.434307,0.486230,2.197922,2.638944,0.539060,0.637880,0.288926
1676060968.523721,1676060968.523749,79.000000,0.000000,4309.743652,4289.230957,4331.794922,4329.358887,4296.794922,4302.051270,4310.256348,4310.769043,4293.205078,4275.256348,4471.538574,4536.153809,4361.794922,4414.743652,2672.000000,4.000000,83.000000,,,,0.000000,4.000000,4.000000,4.000000,4.000000,4.000000,4.000000,4.000000,4.000000,4.000000,4.000000,4.000000,4.000000,4.000000,4.000000,100.000000,,,,,,,,,,,,,,,,,,,,,,,,,,,,,,,,,,,,,,,,,,,,,,,,,,,,,,,,,,,,,,,,,,,,,,,,,,,,,,,,,,,,,,
1676060968.531530,1676060968.531657,80.000000,0.000000,4313.205078,4284.102539,4327.307617,4325.641113,4294.487305,4293.974121,4311.282227,4318.077148,4297.051270,4290.384766,4478.974121,4537.051270,4378.846191,4419.615234,3034.000000,4.000000,83.000000,,,,0.000000,4.000000,4.000000,4.000000,4.000000,4.000000,4.000000,4.000000,4.000000,4.000000,4.000000,4.000000,4.000000,4.000000,4.000000,100.000000,,,,,,,,,,,,,,,,,,,,,,,,,,,,,,,,,,,,,,,,,,,,,,,,,,,,,,,,,,,,,,,,,,,,,,,,,,,,,,,,,,,,,,
1676060968.539338,1676060968.539465,81.000000,0.000000,4309.871582,4277.436035,4327.436035,4321.153809,4295.512695,4294.487305,4302.307617,4320.897461,4295.256348,4285.000000,4476.794922,4536.922852,4375.897461,4417.948730,3286.000000,4.000000,83.000000,,,,0.000000,4.000000,4.000000,4.000000,4.000000,4.000000,4.000000,4.000000,4.000000,4.000000,4.000000,4.000000,4.000000,4.000000,4.000000,100.000000,,,,,,,,,,,,,,,,,,,,,,,,,,,,,,,,,,,,,,,,,,,,,,,,,,,,,,,,,,,,,,,,,,,,,,,,,,,,,,,,,,,,,,
1676060968.547146,1676060968.547374,82.000000,0.000000,4298.717773,4276.410156,4326.666504,4318.461426,4293.205078,4295.769043,4293.846191,4313.333496,4287.563965,4272.692383,4473.205078,4528.205078,4365.256348,4414.487305,2703.000000,4.000000,83.000000,,,,0.000000,4.000000,4.000000,4.000000,4.000000,4.000000,4.000000,4.000000,4.000000,4.000000,4.000000,4.000000,4.000000,4.000000,4.000000,100.000000,,,,,,,,,,,,,,,,,,,,,,,,,,,,,,,,,,,,,,,,,,,,,,,,,,,,,,,,,,,,,,,,,,,,,,,,,,,,,,,,,,,,,,
1676060968.554955,1676060968.555182,83.000000,0.000000,4294.102539,4274.102539,4325.384766,4315.384766,4289.743652,4292.820313,4293.846191,4308.717773,4284.358887,4275.641113,4474.487305,4523.077148,4361.538574,4414.487305,2672.000000,4.000000,83.000000,,,,0.000000,4.000000,4.000000,4.000000,4.000000,4.000000,4.000000,4.000000,4.000000,4.000000,4.000000,4.000000,4.000000,4.000000,4.000000,100.000000,,,,,,,,,,,,,,,,,,,,,,,,,,,,,,,,,,,,,,,,,,,,,,,,,,,,,,,,,,,,,,,,,,,,,,,,,,,,,,,,,,,,,,
1676060968.562763,1676060968.563091,84.000000,0.000000,4302.179688,4274.871582,4327.307617,4316.025879,4293.846191,4291.282227,4297.948730,4312.820313,4285.769043,4279.743652,4471.922852,4525.256348,4357.179688,4411.410156,3034.000000,4.000000,83.000000,,,,0.000000,4.000000,4.000000,4.000000,4.000000,4.000000,4.000000,4.000000,4.000000,4.000000,4.000000,4.000000,4.000000,4.000000,4.000000,100.000000,,,,,,,,,,,,,,,,,,,,,,,,,,,,,,,,,,,,,,,,,,,,,,,,,,,,,,,,,,,,,,,,,,,,,,,,,,,,,,,,,,,,,,
1676060968.570572,1676060968.570999,85.000000,0.000000,4306.025879,4286.794922,4326.282227,4324.230957,4299.487305,4292.179688,4300.512695,4316.410156,4289.615234,4276.153809,4473.461426,4523.717773,4363.974121,4412.051270,3286.000000,4.000000,83.000000,,,,0.000000,4.000000,4.000000,4.000000,4.000000,4.000000,4.000000,4.000000,4.000000,4.000000,4.000000,4.000000,4.000000,4.000000,4.000000,100.000000,,,,,,,,,,,,,,,,,,,,,,,,,,,,,,,,,,,,,,,,,,,,,,,,,,,,,,,,,,,,,,,,,,,,,,,,,,,,,,,,,,,,,,
1676060968.578380,1676060968.578807,86.000000,0.000000,4297.820313,4285.769043,4326.666504,4323.205078,4294.230957,4297.692383,4307.563965,4321.666504,4297.179688,4278.589844,4475.897461,4524.102539,4368.333496,4415.128418,2703.000000,4.000000,83.000000,,,,0.000000,4.000000,4.000000,4.000000,4.000000,4.000000,4.000000,4.000000,4.000000,4.000000,4.000000,4.000000,4.000000,4.000000,4.000000,100.000000,,,,,,,,,,,,,,,,,,,,,,,,,,,,,,,,,,,,,,,,,,,,,,,,,,,,,,,,,,,,,,,,,,,,,,,,,,,,,,,,,,,,,,
1676060968.586188,1676060968.586616,87.000000,0.000000,4292.563965,4268.077148,4325.769043,4313.974121,4285.000000,4302.179688,4312.436035,4322.436035,4295.384766,4278.589844,4467.051270,4520.384766,4351.538574,4405.384766,2672.000000,4.000000,83.000000,,,,0.000000,4.000000,4.000000,4.000000,4.000000,4.000000,4.000000,4.000000,4.000000,4.000000,4.000000,4.000000,4.000000,4.000000,4.000000,100.000000,,,,,,,,,,,,,,,,,,,,,,,,,,,,,,,,,,,,,,,,,,,,,,,,,,,,,,,,,,,,,,,,,,,,,,,,,,,,,,,,,,,,,,
1676060968.593997,1676060968.594424,88.000000,0.000000,4294.743652,4268.846191,4317.563965,4315.897461,4278.461426,4297.820313,4308.461426,4312.948730,4283.333496,4268.589844,4456.794922,4510.384766,4349.102539,4396.922852,3034.000000,4.000000,83.000000,,,,0.000000,4.000000,4.000000,4.000000,4.000000,4.000000,4.000000,4.000000,4.000000,4.000000,4.000000,4.000000,4.000000,4.000000,4.000000,100.000000,,,,,,,,,,,,,,,,,,,,,,,,,,,,,,,,,,,,,,,,,,,,,,,,,,,,,,,,,,,,,,,,,,,,,,,,,,,,,,,,,,,,,,
1676060968.601805,1676060968.602233,89.000000,0.000000,4296.538574,4280.256348,4312.179688,4322.179688,4279.487305,4294.487305,4307.179688,4312.179688,4283.974121,4261.794922,4455.641113,4513.077148,4361.025879,4401.794922,3286.000000,4.000000,83.000000,,,,0.000000,4.000000,4.000000,4.000000,4.000000,4.000000,4.000000,4.000000,4.000000,4.000000,4.000000,4.000000,4.000000,4.000000,4.000000,100.000000,,,,,,,,,,,,,,,,,,,,,,,,,,,,,,,,,,,,,,,,,,,,,,,,,,,,,,,,,,,,,,,,,,,,,,,,,,,,,,,,,,,,,,
1676060968.609614,1676060968.609941,90.000000,0.000000,4296.282227,4273.077148,4316.410156,4320.000000,4293.333496,4298.205078,4313.461426,4323.333496,4296.410156,4263.589844,4461.666504,4524.743652,4354.871582,4409.615234,2703.000000,4.000000,83.000000,,,,0.000000,4.000000,4.000000,4.000000,4.000000,4.000000,4.000000,4.000000,4.000000,4.000000,4.000000,4.000000,4.000000,4.000000,4.000000,100.000000,,,,,,,,,,,,,,,,,,,,,,,,,,,,,,,,,,,,,,,,,,,,,,,,,,,,,,,,,,,,,,,,,,,,,,,,,,,,,,,,,,,,,,
1676060968.617422,1676060968.617750,91.000000,0.000000,4294.102539,4267.948730,4315.000000,4315.897461,4300.256348,4298.333496,4315.128418,4323.333496,4296.922852,4271.538574,4464.871582,4524.102539,4350.769043,4409.871582,2672.000000,4.000000,83.000000,,,,0.000000,4.000000,4.000000,4.000000,4.000000,4.000000,4.000000,4.000000,4.000000,4.000000,4.000000,4.000000,4.000000,4.000000,4.000000,100.000000,,,,,,,,,,,,,,,,,,,,,,,,,,,,,,,,,,,,,,,,,,,,,,,,,,,,,,,,,,,,,,,,,,,,,,,,,,,,,,,,,,,,,,
1676060968.625230,1676060968.625458,92.000000,0.000000,4294.615234,4279.871582,4310.641113,4315.769043,4292.820313,4292.692383,4311.410156,4320.128418,4294.615234,4279.615234,4462.051270,4519.358887,4363.589844,4410.897461,3034.000000,4.000000,83.000000,,,,0.000000,4.000000,4.000000,4.000000,4.000000,4.000000,4.000000,4.000000,4.000000,4.000000,4.000000,4.000000,4.000000,4.000000,4.000000,100.000000,,,,,,,,,,,,,,,,,,,,,,,,,,,,,,,,,,,,,,,,,,,,,,,,,,,,,,,,,,,,,,,,,,,,,,,,,,,,,,,,,,,,,,
1676060968.633039,1676060968.633267,93.000000,0.000000,4303.974121,4282.692383,4319.230957,4316.666504,4293.205078,4293.077148,4312.051270,4323.461426,4297.563965,4282.436035,4461.538574,4521.666504,4364.487305,4418.974121,3286.000000,4.000000,83.000000,,,,0.000000,4.000000,4.000000,4.000000,4.000000,4.000000,4.000000,4.000000,4.000000,4.000000,4.000000,4.000000,4.000000,4.000000,4.000000,100.000000,,,,,,,,,,,,,,,,,,,,,,,,,,,,,,,,,,,,,,,,,,,,,,,,,,,,,,,,,,,,,,,,,,,,,,,,,,,,,,,,,,,,,,
1676060968.640847,1676060968.640975,94.000000,0.000000,4312.563965,4279.358887,4329.871582,4322.307617,4300.256348,4294.615234,4311.410156,4323.333496,4299.743652,4281.282227,4473.461426,4526.794922,4361.666504,4429.615234,2703.000000,4.000000,83.000000,,,,0.000000,4.000000,4.000000,4.000000,4.000000,4.000000,4.000000,4.000000,4.000000,4.000000,4.000000,4.000000,4.000000,4.000000,4.000000,100.000000,,,,,,,,,,,,,,,,,1.254085,2.843936,0.331160,0.419717,0.201678,0.827284,1.718963,0.280296,0.427858,0.329754,1.034312,3.830552,0.329366,0.567208,0.292250,1.042039,2.037048,0.295418,0.348590,0.303972,0.482462,0.398556,0.318392,0.203622,0.356088,0.517227,0.359969,0.193614,0.275255,0.142101,0.405003,0.764301,0.448455,0.492786,0.253571,0.380049,0.285129,0.206583,0.263445,0.146042,0.379533,1.149194,0.386118,0.442675,0.206204,0.710305,0.815906,1.199674,0.672180,1.138555,1.912629,1.149704,0.287173,0.571051,0.562168,2.796818,3.503754,0.406063,0.678349,0.316068,1.411740,1.129866,0.340317,0.413558,0.491520,1.910190,2.778773,0.478149,0.619860,0.294250
1676060968.648655,1676060968.648884,95.000000,0.000000,4311.538574,4285.897461,4327.179688,4327.948730,4297.563965,4287.563965,4305.769043,4321.153809,4297.436035,4279.358887,4483.205078,4526.922852,4369.615234,4434.230957,2672.000000,4.000000,83.000000,,,,0.000000,4.000000,4.000000,4.000000,4.000000,4.000000,4.000000,4.000000,4.000000,4.000000,4.000000,4.000000,4.000000,4.000000,4.000000,100.000000,,,,,,,,,,,,,,,,,,,,,,,,,,,,,,,,,,,,,,,,,,,,,,,,,,,,,,,,,,,,,,,,,,,,,,,,,,,,,,,,,,,,,,
1676060968.656464,1676060968.656692,96.000000,0.000000,4308.205078,4288.077148,4323.077148,4327.307617,4294.871582,4280.384766,4300.384766,4318.205078,4288.717773,4278.846191,4471.153809,4522.692383,4363.974121,4426.794922,3034.000000,4.000000,83.000000,,,,0.000000,4.000000,4.000000,4.000000,4.000000,4.000000,4.000000,4.000000,4.000000,4.000000,4.000000,4.000000,4.000000,4.000000,4.000000,100.000000,,,,,,,,,,,,,,,,,,,,,,,,,,,,,,,,,,,,,,,,,,,,,,,,,,,,,,,,,,,,,,,,,,,,,,,,,,,,,,,,,,,,,,
1676060968.664272,1676060968.664600,97.000000,0.000000,4312.179688,4283.589844,4327.179688,4319.230957,4297.179688,4280.128418,4303.717773,4316.410156,4283.077148,4279.615234,4465.128418,4525.769043,4359.871582,4426.538574,3286.000000,4.000000,83.000000,,,,0.000000,4.000000,4.000000,4.000000,4.000000,4.000000,4.000000,4.000000,4.000000,4.000000,4.000000,4.000000,4.000000,4.000000,4.000000,100.000000,,,,,,,,,,,,,,,,,,,,,,,,,,,,,,,,,,,,,,,,,,,,,,,,,,,,,,,,,,,,,,,,,,,,,,,,,,,,,,,,,,,,,,
1676060968.672081,1676060968.672409,98.000000,0.000000,4313.846191,4283.333496,4329.358887,4314.487305,4295.641113,4283.846191,4310.897461,4318.461426,4284.102539,4274.615234,4474.358887,4530.128418,4366.282227,4430.000000,2703.000000,4.000000,83.000000,,,,0.000000,4.000000,4.000000,4.000000,4.000000,4.000000,4.000000,4.000000,4.000000,4.000000,4.000000,4.000000,4.000000,4.000000,4.000000,100.000000,,,,,,,,,,,,,,,,,,,,,,,,,,,,,,,,,,,,,,,,,,,,,,,,,,,,,,,,,,,,,,,,,,,,,,,,,,,,,,,,,,,,,,
1676060968.679889,1676060968.680317,99.000000,0.000000,4303.974121,4280.512695,4324.230957,4320.897461,4291.922852,4287.051270,4309.487305,4317.820313,4281.922852,4268.589844,4466.153809,4522.948730,4359.230957,4417.820313,2672.000000,4.000000,83.000000,,,,0.000000,4.000000,4.000000,4.000000,4.000000,4.000000,4.000000,4.000000,4.000000,4.000000,4.000000,4.000000,4.000000,4.000000,4.000000,100.000000,,,,,,,,,,,,,,,,,,,,,,,,,,,,,,,,,,,,,,,,,,,,,,,,,,,,,,,,,,,,,,,,,,,,,,,,,,,,,,,,,,,,,,
1676060968.687697,1676060968.688126,100.000000,0.000000,4299.743652,4280.256348,4323.846191,4327.179688,4294.871582,4292.563965,4311.666504,4317.820313,4287.436035,4278.717773,4454.615234,4522.307617,4354.743652,4408.717773,3034.000000,4.000000,83.000000,,,,0.000000,4.000000,4.000000,4.000000,4.000000,4.000000,4.000000,4.000000,4.000000,4.000000,4.000000,4.000000,4.000000,4.000000,4.000000,100.000000,,,,,,,,,,,,,,,,,,,,,,,,,,,,,,,,,,,,,,,,,,,,,,,,,,,,,,,,,,,,,,,,,,,,,,,,,,,,,,,,,,,,,,
1676060968.695506,1676060968.695934,101.000000,0.000000,4309.358887,4290.256348,4329.487305,4325.384766,4301.794922,4295.512695,4318.974121,4323.717773,4301.282227,4287.563965,4468.589844,4529.743652,4363.974121,4413.461426,3286.000000,4.000000,83.000000,,,,0.000000,4.000000,4.000000,4.000000,4.000000,4.000000,4.000000,4.000000,4.000000,4.000000,4.000000,4.000000,4.000000,4.000000,4.000000,100.000000,,,,,,,,,,,,,,,,,,,,,,,,,,,,,,,,,,,,,,,,,,,,,,,,,,,,,,,,,,,,,,,,,,,,,,,,,,,,,,,,,,,,,,
1676060968.703314,1676060968.703643,102.000000,0.000000,4311.538574,4291.410156,4325.512695,4320.384766,4299.102539,4288.461426,4313.846191,4325.641113,4302.948730,4288.077148,4478.333496,4526.410156,4372.179688,4419.102539,2703.000000,4.000000,83.000000,,,,0.000000,4.000000,4.000000,4.000000,4.000000,4.000000,4.000000,4.000000,4.000000,4.000000,4.000000,4.000000,4.000000,4.000000,4.000000,100.000000,,,,,,,,,,,,,,,,,,,,,,,,,,,,,,,,,,,,,,,,,,,,,,,,,,,,,,,,,,,,,,,,,,,,,,,,,,,,,,,,,,,,,,
1676060968.711123,1676060968.711551,103.000000,0.000000,4301.538574,4280.769043,4313.846191,4317.307617,4293.717773,4280.769043,4304.358887,4320.000000,4294.358887,4278.205078,4460.769043,4519.743652,4365.897461,4415.641113,2672.000000,4.000000,83.000000,,,,0.000000,4.000000,4.000000,4.000000,4.000000,4.000000,4.000000,4.000000,4.000000,4.000000,4.000000,4.000000,4.000000,4.000000,4.000000,100.000000,,,,,,,,,,,,,,,,,,,,,,,,,,,,,,,,,,,,,,,,,,,,,,,,,,,,,,,,,,,,,,,,,,,,,,,,,,,,,,,,,,,,,,
1676060968.718931,1676060968.719359,104.000000,0.000000,4304.230957,4285.897461,4317.179688,4318.589844,4296.025879,4278.461426,4311.025879,4319.487305,4294.615234,4260.384766,4456.794922,4525.256348,4358.205078,4414.743652,3034.000000,4.000000,83.000000,,,,0.000000,4.000000,4.000000,4.000000,4.000000,4.000000,4.000000,4.000000,4.000000,4.000000,4.000000,4.000000,4.000000,4.000000,4.000000,100.000000,,,,,,,,,,,,,,,,,,,,,,,,,,,,,,,,,,,,,,,,,,,,,,,,,,,,,,,,,,,,,,,,,,,,,,,,,,,,,,,,,,,,,,
1676060968.726739,1676060968.727268,105.000000,0.000000,4312.692383,4299.615234,4324.358887,4324.871582,4291.794922,4275.769043,4310.384766,4317.563965,4295.128418,4263.205078,4473.077148,4526.282227,4362.307617,4422.436035,3286.000000,4.000000,83.000000,,,,0.000000,4.000000,4.000000,4.000000,4.000000,4.000000,4.000000,4.000000,4.000000,4.000000,4.000000,4.000000,4.000000,4.000000,4.000000,100.000000,,,,,,,,,,,,,,,,,,,,,,,,,,,,,,,,,,,,,,,,,,,,,,,,,,,,,,,,,,,,,,,,,,,,,,,,,,,,,,,,,,,,,,
1676060968.734548,1676060968.735076,106.000000,0.000000,4305.128418,4290.897461,4315.641113,4323.589844,4288.846191,4273.077148,4295.512695,4312.307617,4290.641113,4284.871582,4472.563965,4520.000000,4365.897461,4423.589844,2703.000000,4.000000,83.000000,,,,0.000000,4.000000,4.000000,4.000000,4.000000,4.000000,4.000000,4.000000,4.000000,4.000000,4.000000,4.000000,4.000000,4.000000,4.000000,100.000000,,,,,,,,,,,,,,,,,,,,,,,,,,,,,,,,,,,,,,,,,,,,,,,,,,,,,,,,,,,,,,,,,,,,,,,,,,,,,,,,,,,,,,
1676060968.742356,1676060968.742985,107.000000,0.000000,4298.589844,4281.282227,4308.974121,4317.051270,4300.769043,4276.794922,4297.179688,4312.179688,4287.307617,4286.538574,4459.871582,4520.897461,4363.846191,4416.410156,2672.000000,4.000000,83.000000,,,,0.000000,4.000000,4.000000,4.000000,4.000000,4.000000,4.000000,4.000000,4.000000,4.000000,4.000000,4.000000,4.000000,4.000000,4.000000,100.000000,,,,,,,,,,,,,,,,,,,,,,,,,,,,,,,,,,,,,,,,,,,,,,,,,,,,,,,,,,,,,,,,,,,,,,,,,,,,,,,,,,,,,,
1676060968.750165,1676060968.750793,108.000000,0.000000,4306.794922,4292.563965,4319.102539,4320.641113,4304.743652,4280.641113,4306.666504,4316.153809,4285.128418,4273.589844,4460.128418,4525.384766,4363.974121,4416.282227,3034.000000,4.000000,83.000000,,,,0.000000,4.000000,4.000000,4.000000,4.000000,4.000000,4.000000,4.000000,4.000000,4.000000,4.000000,4.000000,4.000000,4.000000,4.000000,100.000000,,,,,,,,,,,,,,,,,,,,,,,,,,,,,,,,,,,,,,,,,,,,,,,,,,,,,,,,,,,,,,,,,,,,,,,,,,,,,,,,,,,,,,
1676060968.757973,1676060968.758701,109.000000,0.000000,4310.512695,4298.846191,4321.025879,4326.410156,4293.205078,4276.922852,4298.974121,4313.077148,4281.410156,4277.051270,4462.563965,4522.820313,4362.948730,4417.179688,3286.000000,4.000000,83.000000,,,,0.000000,4.000000,4.000000,4.000000,4.000000,4.000000,4.000000,4.000000,4.000000,4.000000,4.000000,4.000000,4.000000,4.000000,4.000000,100.000000,,,,,,,,,,,,,,,,,,,,,,,,,,,,,,,,,,,,,,,,,,,,,,,,,,,,,,,,,,,,,,,,,,,,,,,,,,,,,,,,,,,,,,
1676060968.765781,1676060968.766510,110.000000,0.000000,4306.282227,4294.871582,4315.128418,4326.025879,4290.128418,4276.025879,4290.000000,4307.436035,4278.589844,4277.307617,4457.307617,4520.128418,4357.563965,4410.897461,2703.000000,4.000000,83.000000,,,,0.000000,4.000000,4.000000,4.000000,4.000000,4.000000,4.000000,4.000000,4.000000,4.000000,4.000000,4.000000,4.000000,4.000000,4.000000,100.000000,,,,,,,,,,,,,,,,,1.024238,2.900349,0.314865,0.400803,0.221765,0.763913,1.657527,0.217954,0.456572,0.327965,0.916180,3.856357,0.259907,0.580352,0.284431,0.961411,2.034775,0.298152,0.320423,0.326899,0.430310,0.436140,0.320970,0.211660,0.330320,0.487733,0.391789,0.226941,0.285450,0.142491,0.389867,0.601254,0.431045,0.544276,0.235493,0.351814,0.301015,0.187673,0.255415,0.148995,0.366445,1.099535,0.390759,0.396640,0.207847,0.711655,0.879751,1.460937,0.596174,1.201437,1.827200,1.128686,0.237814,0.510811,0.591939,2.604448,3.432772,0.433999,0.670670,0.330987,1.290083,1.042570,0.320079,0.387713,0.530128,1.646878,2.873947,0.445808,0.592679,0.307356
1676060968.773590,1676060968.774418,111.000000,0.000000,4307.051270,4291.153809,4320.641113,4323.974121,4297.436035,4278.589844,4297.692383,4310.384766,4279.358887,4265.641113,4458.589844,4523.333496,4358.589844,4417.307617,2672.000000,4.000000,83.000000,,,,0.000000,4.000000,4.000000,4.000000,4.000000,4.000000,4.000000,4.000000,4.000000,4.000000,4.000000,4.000000,4.000000,4.000000,4.000000,100.000000,,,,,,,,,,,,,,,,,,,,,,,,,,,,,,,,,,,,,,,,,,,,,,,,,,,,,,,,,,,,,,,,,,,,,,,,,,,,,,,,,,,,,,
1676060968.781398,1676060968.782227,112.000000,0.000000,4305.769043,4286.666504,4322.436035,4322.692383,4296.282227,4280.128418,4304.615234,4312.692383,4281.025879,4268.333496,4462.692383,4524.487305,4361.794922,4425.769043,3034.000000,4.000000,83.000000,,,,0.000000,4.000000,4.000000,4.000000,4.000000,4.000000,4.000000,4.000000,4.000000,4.000000,4.000000,4.000000,4.000000,4.000000,4.000000,100.000000,,,,,,,,,,,,,,,,,,,,,,,,,,,,,,,,,,,,,,,,,,,,,,,,,,,,,,,,,,,,,,,,,,,,,,,,,,,,,,,,,,,,,,
1676060968.789207,1676060968.789935,113.000000,0.000000,4300.384766,4279.230957,4311.410156,4317.307617,4292.563965,4280.512695,4302.051270,4309.487305,4282.307617,4282.820313,4458.333496,4520.128418,4358.077148,4415.000000,3286.000000,4.000000,83.000000,,,,0.000000,4.000000,4.000000,4.000000,4.000000,4.000000,4.000000,4.000000,4.000000,4.000000,4.000000,4.000000,4.000000,4.000000,4.000000,100.000000,,,,,,,,,,,,,,,,,,,,,,,,,,,,,,,,,,,,,,,,,,,,,,,,,,,,,,,,,,,,,,,,,,,,,,,,,,,,,,,,,,,,,,
1676060968.797015,1676060968.797744,114.000000,0.000000,4305.384766,4278.461426,4308.205078,4317.051270,4298.333496,4281.666504,4306.922852,4313.589844,4286.153809,4282.051270,4457.307617,4520.000000,4355.384766,4413.974121,2703.000000,4.000000,83.000000,,,,0.000000,4.000000,4.000000,4.000000,4.000000,4.000000,4.000000,4.000000,4.000000,4.000000,4.000000,4.000000,4.000000,4.000000,4.000000,100.000000,,,,,,,,,,,,,,,,,,,,,,,,,,,,,,,,,,,,,,,,,,,,,,,,,,,,,,,,,,,,,,,,,,,,,,,,,,,,,,,,,,,,,,
1676060968.804823,1676060968.805452,115.000000,0.000000,4312.436035,4286.922852,4313.717773,4323.717773,4301.025879,4284.871582,4310.256348,4319.230957,4290.512695,4266.794922,4460.897461,4525.128418,4357.692383,4427.692383,2672.000000,4.000000,83.000000,,,,0.000000,4.000000,4.000000,4.000000,4.000000,4.000000,4.000000,4.000000,4.000000,4.000000,4.000000,4.000000,4.000000,4.000000,4.000000,100.000000,,,,,,,,,,,,,,,,,,,,,,,,,,,,,,,,,,,,,,,,,,,,,,,,,,,,,,,,,,,,,,,,,,,,,,,,,,,,,,,,,,,,,,
1676060968.812632,1676060968.813261,116.000000,0.000000,4311.025879,4293.461426,4312.948730,4320.769043,4293.846191,4289.743652,4301.153809,4317.436035,4290.769043,4268.846191,4467.051270,4526.282227,4369.102539,4430.512695,3034.000000,4.000000,83.000000,,,,0.000000,4.000000,4.000000,4.000000,4.000000,4.000000,4.000000,4.000000,4.000000,4.000000,4.000000,4.000000,4.000000,4.000000,4.000000,100.000000,,,,,,,,,,,,,,,,,,,,,,,,,,,,,,,,,,,,,,,,,,,,,,,,,,,,,,,,,,,,,,,,,,,,,,,,,,,,,,,,,,,,,,
1676060968.820440,1676060968.820969,117.000000,0.000000,4309.230957,4293.461426,4312.179688,4316.153809,4290.897461,4298.589844,4298.333496,4313.846191,4290.641113,4283.077148,4471.794922,4525.128418,4376.410156,4428.846191,3286.000000,4.000000,83.000000,,,,0.000000,4.000000,4.000000,4.000000,4.000000,4.000000,4.000000,4.000000,4.000000,4.000000,4.000000,4.000000,4.000000,4.000000,4.000000,100.000000,,,,,,,,,,,,,,,,,,,,,,,,,,,,,,,,,,,,,,,,,,,,,,,,,,,,,,,,,,,,,,,,,,,,,,,,,,,,,,,,,,,,,,
1676060968.828249,1676060968.828778,118.000000,0.000000,4309.102539,4284.487305,4313.846191,4321.666504,4296.410156,4309.615234,4306.025879,4313.205078,4291.922852,4282.563965,4464.230957,4525.128418,4368.205078,4426.153809,2703.000000,4.000000,83.000000,,,,0.000000,4.000000,4.000000,4.000000,4.000000,4.000000,4.000000,4.000000,4.000000,4.000000,4.000000,4.000000,4.000000,4.000000,4.000000,100.000000,,,,,,,,,,,,,,,,,,,,,,,,,,,,,,,,,,,,,,,,,,,,,,,,,,,,,,,,,,,,,,,,,,,,,,,,,,,,,,,,,,,,,,
1676060968.836057,1676060968.836486,119.000000,0.000000,4307.820313,4279.487305,4309.743652,4326.666504,4297.820313,4314.358887,4304.102539,4311.538574,4286.025879,4275.384766,4457.436035,4522.948730,4364.230957,4416.153809,2672.000000,4.000000,83.000000,,,,0.000000,4.000000,4.000000,4.000000,4.000000,4.000000,4.000000,4.000000,4.000000,4.000000,4.000000,4.000000,4.000000,4.000000,4.000000,100.000000,,,,,,,,,,,,,,,,,,,,,,,,,,,,,,,,,,,,,,,,,,,,,,,,,,,,,,,,,,,,,,,,,,,,,,,,,,,,,,,,,,,,,,
1676060968.843865,1676060968.844295,120.000000,0.000000,4308.717773,4288.077148,4312.948730,4325.512695,4296.282227,4313.333496,4303.461426,4310.641113,4277.820313,4277.436035,4467.307617,4520.512695,4366.538574,4414.871582,3034.000000,4.000000,83.000000,,,,0.000000,4.000000,4.000000,4.000000,4.000000,4.000000,4.000000,4.000000,4.000000,4.000000,4.000000,4.000000,4.000000,4.000000,4.000000,100.000000,,,,,,,,,,,,,,,,,,,,,,,,,,,,,,,,,,,,,,,,,,,,,,,,,,,,,,,,,,,,,,,,,,,,,,,,,,,,,,,,,,,,,,
1676060968.851674,1676060968.852003,121.000000,0.000000,4309.871582,4297.179688,4324.487305,4325.256348,4296.025879,4310.384766,4308.461426,4309.487305,4278.589844,4279.102539,4477.948730,4523.205078,4371.153809,4425.769043,3286.000000,4.000000,83.000000,,,,0.000000,4.000000,4.000000,4.000000,4.000000,4.000000,4.000000,4.000000,4.000000,4.000000,4.000000,4.000000,4.000000,4.000000,4.000000,100.000000,,,,,,,,,,,,,,,,,,,,,,,,,,,,,,,,,,,,,,,,,,,,,,,,,,,,,,,,,,,,,,,,,,,,,,,,,,,,,,,,,,,,,,
1676060968.859482,1676060968.859812,122.000000,0.000000,4312.436035,4294.102539,4324.871582,4327.436035,4294.102539,4306.410156,4302.051270,4307.051270,4282.692383,4281.025879,4471.410156,4528.589844,4374.102539,4431.794922,2703.000000,4.000000,83.000000,,,,0.000000,4.000000,4.000000,4.000000,4.000000,4.000000,4.000000,4.000000,4.000000,4.000000,4.000000,4.000000,4.000000,4.000000,4.000000,100.000000,,,,,,,,,,,,,,,,,,,,,,,,,,,,,,,,,,,,,,,,,,,,,,,,,,,,,,,,,,,,,,,,,,,,,,,,,,,,,,,,,,,,,,
1676060968.867290,1676060968.867520,123.000000,0.000000,4313.846191,4290.256348,4314.358887,4325.769043,4294.871582,4306.025879,4292.563965,4302.563965,4281.153809,4280.769043,4461.153809,4521.666504,4369.743652,4426.666504,2672.000000,4.000000,83.000000,,,,0.000000,4.000000,4.000000,4.000000,4.000000,4.000000,4.000000,4.000000,4.000000,4.000000,4.000000,4.000000,4.000000,4.000000,4.000000,100.000000,,,,,,,,,,,,,,,,,,,,,,,,,,,,,,,,,,,,,,,,,,,,,,,,,,,,,,,,,,,,,,,,,,,,,,,,,,,,,,,,,,,,,,
1676060968.875099,1676060968.875329,124.000000,0.000000,4302.692383,4288.846191,4307.436035,4320.384766,4293.717773,4306.922852,4292.563965,4298.461426,4281.025879,4265.384766,4458.077148,4509.871582,4369.358887,4417.948730,3034.000000,4.000000,83.000000,,,,0.000000,4.000000,4.000000,4.000000,4.000000,4.000000,4.000000,4.000000,4.000000,4.000000,4.000000,4.000000,4.000000,4.000000,4.000000,100.000000,,,,,,,,,,,,,,,,,,,,,,,,,,,,,,,,,,,,,,,,,,,,,,,,,,,,,,,,,,,,,,,,,,,,,,,,,,,,,,,,,,,,,,
1676060968.882907,1676060968.883037,125.000000,0.000000,4294.871582,4284.358887,4310.897461,4316.794922,4291.025879,4310.000000,4301.538574,4304.615234,4290.000000,4267.563965,4458.717773,4514.743652,4369.102539,4412.948730,3286.000000,4.000000,83.000000,,,,0.000000,4.000000,4.000000,4.000000,4.000000,4.000000,4.000000,4.000000,4.000000,4.000000,4.000000,4.000000,4.000000,4.000000,4.000000,100.000000,,,,,,,,,,,,,,,,,,,,,,,,,,,,,,,,,,,,,,,,,,,,,,,,,,,,,,,,,,,,,,,,,,,,,,,,,,,,,,,,,,,,,,
1676060968.890716,1676060968.890846,126.000000,0.000000,4303.589844,4289.102539,4313.974121,4319.487305,4297.948730,4315.897461,4309.743652,4313.589844,4299.102539,4287.436035,4462.820313,4526.922852,4366.025879,4415.897461,2703.000000,4.000000,83.000000,,,,0.000000,4.000000,4.000000,4.000000,4.000000,4.000000,4.000000,4.000000,4.000000,4.000000,4.000000,4.000000,4.000000,4.000000,4.000000,100.000000,,,,,,,,,,,,,,,,,0.805401,2.807745,0.342062,0.396168,0.249751,0.664305,1.494466,0.181908,0.489816,0.333929,0.838213,3.724379,0.225137,0.585711,0.281394,0.828247,1.944479,0.310114,0.289714,0.343232,0.396110,0.465841,0.305774,0.215790,0.312127,0.494076,0.417152,0.255546,0.293228,0.158280,0.438352,0.562503,0.464578,0.589086,0.217727,0.316992,0.330837,0.170230,0.245487,0.150068,0.432456,1.024257,0.387391,0.352238,0.214034,0.850377,0.978867,1.707895,0.565400,1.246814,1.808548,1.200224,0.229495,0.434463,0.614706,2.431552,3.368957,0.493010,0.659121,0.353016,1.242121,1.069365,0.362091,0.363420,0.595344,1.477563,2.883232,0.448465,0.561182,0.320707
1676060968.898524,1676060968.898554,127.000000,0.000000,4303.974121,4291.410156,4304.615234,4318.205078,4299.358887,4315.512695,4304.743652,4312.179688,4299.358887,4285.128418,4458.333496,4523.333496,4365.769043,4416.282227,83.000000,4.000000,83.000000,,,,0.000000,4.000000,4.000000,4.000000,4.000000,4.000000,4.000000,4.000000,4.000000,4.000000,4.000000,4.000000,4.000000,4.000000,4.000000,100.000000,,,,,,,,,,,,,,,,,,,,,,,,,,,,,,,,,,,,,,,,,,,,,,,,,,,,,,,,,,,,,,,,,,,,,,,,,,,,,,,,,,,,,,
1676060968.906332,1676060968.906462,0.000000,0.000000,4288.461426,4276.538574,4292.436035,4307.179688,4283.333496,4308.205078,4293.717773,4308.589844,4291.153809,4269.743652,4444.871582,4506.666504,4359.102539,4401.025879,2556.000000,4.000000,83.000000,,,,0.000000,4.000000,4.000000,4.000000,4.000000,4.000000,4.000000,4.000000,4.000000,4.000000,4.000000,4.000000,4.000000,4.000000,4.000000,100.000000,,,,,,,,,,,,,,,,,,,,,,,,,,,,,,,,,,,,,,,,,,,,,,,,,,,,,,,,,,,,,,,,,,,,,,,,,,,,,,,,,,,,,,
1676060968.914141,1676060968.914271,1.000000,0.000000,4285.384766,4268.717773,4289.615234,4303.205078,4279.230957,4308.077148,4296.922852,4309.615234,4288.461426,4270.512695,4443.333496,4502.436035,4348.717773,4388.974121,2491.000000,4.000000,83.000000,,,,0.000000,4.000000,4.000000,4.000000,4.000000,4.000000,4.000000,4.000000,4.000000,4.000000,4.000000,4.000000,4.000000,4.000000,4.000000,100.000000,,,,,,,,,,,,,,,,,,,,,,,,,,,,,,,,,,,,,,,,,,,,,,,,,,,,,,,,,,,,,,,,,,,,,,,,,,,,,,,,,,,,,,
1676060968.921949,1676060968.922179,2.000000,0.000000,4295.256348,4277.563965,4296.410156,4310.128418,4292.692383,4311.666504,4304.743652,4312.051270,4292.307617,4267.563965,4454.230957,4515.128418,4352.692383,4400.000000,2351.000000,4.000000,83.000000,,,,0.000000,4.000000,4.000000,4.000000,4.000000,4.000000,4.000000,4.000000,4.000000,4.000000,4.000000,4.000000,4.000000,4.000000,4.000000,100.000000,,,,,,,,,,,,,,,,,,,,,,,,,,,,,,,,,,,,,,,,,,,,,,,,,,,,,,,,,,,,,,,,,,,,,,,,,,,,,,,,,,,,,,
1676060968.929758,1676060968.929988,3.000000,0.000000,4299.871582,4281.153809,4304.615234,4314.743652,4293.077148,4310.128418,4300.641113,4312.436035,4292.820313,4257.179688,4460.128418,4527.563965,4362.307617,4415.256348,2466.000000,4.000000,83.000000,,,,0.000000,4.000000,4.000000,4.000000,4.000000,4.000000,4.000000,4.000000,4.000000,4.000000,4.000000,4.000000,4.000000,4.000000,4.000000,100.000000,,,,,,,,,,,,,,,,,,,,,,,,,,,,,,,,,,,,,,,,,,,,,,,,,,,,,,,,,,,,,,,,,,,,,,,,,,,,,,,,,,,,,,
1676060968.937566,1676060968.937896,4.000000,0.000000,4296.922852,4275.128418,4306.025879,4311.410156,4283.846191,4308.974121,4297.179688,4309.358887,4286.410156,4267.051270,4458.333496,4523.717773,4359.487305,4412.307617,2501.000000,4.000000,83.000000,,,,0.000000,4.000000,4.000000,4.000000,4.000000,4.000000,4.000000,4.000000,4.000000,4.000000,4.000000,4.000000,4.000000,4.000000,4.000000,100.000000,,,,,,,,,,,,,,,,,,,,,,,,,,,,,,,,,,,,,,,,,,,,,,,,,,,,,,,,,,,,,,,,,,,,,,,,,,,,,,,,,,,,,,
1676060968.945374,1676060968.945705,5.000000,0.000000,4295.000000,4276.666504,4304.743652,4310.000000,4289.743652,4304.743652,4293.717773,4306.666504,4282.436035,4286.025879,4460.256348,4518.717773,4361.794922,4407.051270,2130.000000,4.000000,83.000000,,,,0.000000,4.000000,4.000000,4.000000,4.000000,4.000000,4.000000,4.000000,4.000000,4.000000,4.000000,4.000000,4.000000,4.000000,4.000000,100.000000,,,,,,,,,,,,,,,,,,,,,,,,,,,,,,,,,,,,,,,,,,,,,,,,,,,,,,,,,,,,,,,,,,,,,,,,,,,,,,,,,,,,,,
1676060968.953183,1676060968.953613,6.000000,0.000000,4302.307617,4286.282227,4310.000000,4316.794922,4296.410156,4297.179688,4283.077148,4303.077148,4284.102539,4287.436035,4461.282227,4530.512695,4374.230957,4415.128418,2413.000000,4.000000,83.000000,,,,0.000000,4.000000,4.000000,4.000000,4.000000,4.000000,4.000000,4.000000,4.000000,4.000000,4.000000,4.000000,4.000000,4.000000,4.000000,100.000000,,,,,,,,,,,,,,,,,,,,,,,,,,,,,,,,,,,,,,,,,,,,,,,,,,,,,,,,,,,,,,,,,,,,,,,,,,,,,,,,,,,,,,
1676060968.960991,1676060968.961421,7.000000,0.000000,4304.487305,4286.666504,4313.974121,4319.230957,4285.641113,4296.794922,4282.179688,4300.641113,4279.230957,4272.179688,4462.820313,4539.102539,4373.333496,4420.256348,1795.000000,4.000000,83.000000,,,,0.000000,4.000000,4.000000,4.000000,4.000000,4.000000,4.000000,4.000000,4.000000,4.000000,4.000000,4.000000,4.000000,4.000000,4.000000,100.000000,,,,,,,,,,,,,,,,,,,,,,,,,,,,,,,,,,,,,,,,,,,,,,,,,,,,,,,,,,,,,,,,,,,,,,,,,,,,,,,,,,,,,,
1676060968.968800,1676060968.969330,8.000000,0.000000,4299.230957,4278.205078,4314.358887,4318.205078,4286.153809,4307.051270,4295.897461,4307.307617,4280.769043,4271.922852,4472.563965,4539.358887,4363.077148,4417.436035,2249.000000,4.000000,83.000000,,,,0.000000,4.000000,4.000000,4.000000,4.000000,4.000000,4.000000,4.000000,4.000000,4.000000,4.000000,4.000000,4.000000,4.000000,4.000000,100.000000,,,,,,,,,,,,,,,,,,,,,,,,,,,,,,,,,,,,,,,,,,,,,,,,,,,,,,,,,,,,,,,,,,,,,,,,,,,,,,,,,,,,,,
1676060968.976608,1676060968.977138,9.000000,0.000000,4295.512695,4278.846191,4313.846191,4316.538574,4299.487305,4311.410156,4298.589844,4314.743652,4294.358887,4279.487305,4472.948730,4538.461426,4357.820313,4410.384766,2523.000000,4.000000,83.000000,,,,0.000000,4.000000,4.000000,4.000000,4.000000,4.000000,4.000000,4.000000,4.000000,4.000000,4.000000,4.000000,4.000000,4.000000,4.000000,100.000000,,,,,,,,,,,,,,,,,,,,,,,,,,,,,,,,,,,,,,,,,,,,,,,,,,,,,,,,,,,,,,,,,,,,,,,,,,,,,,,,,,,,,,
1676060968.984416,1676060968.984847,10.000000,0.000000,4288.589844,4280.000000,4302.692383,4310.128418,4293.974121,4303.589844,4295.128418,4313.589844,4295.384766,4276.153809,4461.282227,4531.538574,4360.897461,4400.384766,2705.000000,4.000000,83.000000,,,,0.000000,4.000000,4.000000,4.000000,4.000000,4.000000,4.000000,4.000000,4.000000,4.000000,4.000000,4.000000,4.000000,4.000000,4.000000,100.000000,,,,,,,,,,,,,,,,,,,,,,,,,,,,,,,,,,,,,,,,,,,,,,,,,,,,,,,,,,,,,,,,,,,,,,,,,,,,,,,,,,,,,,
1676060968.992225,1676060968.992655,11.000000,0.000000,4280.256348,4269.230957,4292.820313,4306.282227,4281.410156,4301.538574,4307.307617,4310.512695,4288.077148,4277.179688,4456.794922,4519.102539,4359.230957,4395.641113,2672.000000,4.000000,83.000000,,,,0.000000,4.000000,4.000000,4.000000,4.000000,4.000000,4.000000,4.000000,4.000000,4.000000,4.000000,4.000000,4.000000,4.000000,4.000000,100.000000,,,,,,,,,,,,,,,,,,,,,,,,,,,,,,,,,,,,,,,,,,,,,,,,,,,,,,,,,,,,,,,,,,,,,,,,,,,,,,,,,,,,,,
1676060969.000033,1676060969.000364,12.000000,0.000000,4278.205078,4262.051270,4292.307617,4303.461426,4283.333496,4301.922852,4310.128418,4310.641113,4291.410156,4280.641113,4459.871582,4510.512695,4352.179688,4393.974121,3032.000000,4.000000,83.000000,,,,0.000000,4.000000,4.000000,4.000000,4.000000,4.000000,4.000000,4.000000,4.000000,4.000000,4.000000,4.000000,4.000000,4.000000,4.000000,100.000000,,,,,,,,,,,,,,,,,,,,,,,,,,,,,,,,,,,,,,,,,,,,,,,,,,,,,,,,,,,,,,,,,,,,,,,,,,,,,,,,,,,,,,
1676060969.007842,1676060969.008172,13.000000,0.000000,4279.230957,4267.436035,4285.512695,4296.410156,4285.384766,4295.384766,4297.820313,4309.615234,4297.051270,4279.230957,4457.307617,4505.769043,4352.051270,4387.948730,3291.000000,4.000000,83.000000,,,,0.000000,4.000000,4.000000,4.000000,4.000000,4.000000,4.000000,4.000000,4.000000,4.000000,4.000000,4.000000,4.000000,4.000000,4.000000,100.000000,,,,,,,,,,,,,,,,,,,,,,,,,,,,,,,,,,,,,,,,,,,,,,,,,,,,,,,,,,,,,,,,,,,,,,,,,,,,,,,,,,,,,,
1676060969.015650,1676060969.015881,14.000000,0.000000,4276.153809,4268.205078,4275.641113,4291.794922,4280.769043,4293.333496,4295.512695,4308.974121,4293.589844,4277.179688,4453.589844,4503.589844,4356.025879,4383.461426,2705.000000,4.000000,83.000000,,,,0.000000,4.000000,4.000000,4.000000,4.000000,4.000000,4.000000,4.000000,4.000000,4.000000,4.000000,4.000000,4.000000,4.000000,4.000000,100.000000,1.000000,100.000000,4.000000,4.000000,4.000000,4.000000,4.000000,4.000000,4.000000,4.000000,4.000000,4.000000,4.000000,4.000000,4.000000,4.000000,0.678503,2.558008,0.401816,0.397354,0.279457,0.565273,1.259496,0.179783,0.506022,0.342227,0.835990,3.426115,0.221476,0.579886,0.279957,0.715751,1.770072,0.329930,0.263496,0.347263,0.412835,0.483556,0.275586,0.222393,0.307996,0.530071,0.434160,0.287076,0.293946,0.185301,0.558630,0.629189,0.562461,0.611020,0.204428,0.300803,0.357167,0.159781,0.234846,0.148592,0.586736,0.941660,0.385172,0.321228,0.222812,1.153493,1.096982,1.845253,0.599796,1.254132,1.980330,1.349483,0.263800,0.360345,0.628130,2.493569,3.303689,0.569506,0.647922,0.376484,1.330530,1.171491,0.458520,0.344557,0.669258,1.506496,2.804437,0.486429,0.524732,0.327719
1676060969.023458,1676060969.023689,15.000000,0.000000,4278.077148,4264.871582,4282.436035,4298.461426,4281.410156,4293.461426,4296.922852,4309.230957,4294.615234,4280.384766,4457.692383,4513.461426,4362.179688,4391.153809,2672.000000,4.000000,83.000000,,,,0.000000,4.000000,4.000000,4.000000,4.000000,4.000000,4.000000,4.000000,4.000000,4.000000,4.000000,4.000000,4.000000,4.000000,4.000000,100.000000,,,,,,,,,,,,,,,,,,,,,,,,,,,,,,,,,,,,,,,,,,,,,,,,,,,,,,,,,,,,,,,,,,,,,,,,,,,,,,,,,,,,,,
1676060969.031267,1676060969.031398,16.000000,0.000000,4287.563965,4271.025879,4297.436035,4307.307617,4280.769043,4283.333496,4295.384766,4310.128418,4300.000000,4283.846191,4467.307617,4526.794922,4366.538574,4405.641113,0.000000,4.000000,83.000000,,,,0.000000,4.000000,4.000000,4.000000,4.000000,4.000000,4.000000,4.000000,4.000000,4.000000,4.000000,4.000000,4.000000,4.000000,4.000000,100.000000,,,,,,,,,,,,,,,,,,,,,,,,,,,,,,,,,,,,,,,,,,,,,,,,,,,,,,,,,,,,,,,,,,,,,,,,,,,,,,,,,,,,,,
1676060969.039075,1676060969.039206,17.000000,0.000000,4294.230957,4281.282227,4302.051270,4310.512695,4281.922852,4278.077148,4292.948730,4312.179688,4296.538574,4279.487305,4475.000000,4527.820313,4366.410156,4408.974121,0.000000,4.000000,83.000000,,,,0.000000,4.000000,4.000000,4.000000,4.000000,4.000000,4.000000,4.000000,4.000000,4.000000,4.000000,4.000000,4.000000,4.000000,4.000000,100.000000,,,,,,,,,,,,,,,,,,,,,,,,,,,,,,,,,,,,,,,,,,,,,,,,,,,,,,,,,,,,,,,,,,,,,,,,,,,,,,,,,,,,,,
1676060969.046883,1676060969.046915,18.000000,0.000000,4296.410156,4279.743652,4302.436035,4308.974121,4290.897461,4289.102539,4284.358887,4312.051270,4295.128418,4273.205078,4472.307617,4522.179688,4365.000000,4404.102539,0.000000,4.000000,83.000000,,,,0.000000,4.000000,4.000000,4.000000,4.000000,4.000000,4.000000,4.000000,4.000000,4.000000,4.000000,4.000000,4.000000,4.000000,4.000000,100.000000,,,,,,,,,,,,,,,,,,,,,,,,,,,,,,,,,,,,,,,,,,,,,,,,,,,,,,,,,,,,,,,,,,,,,,,,,,,,,,,,,,,,,,
1676060969.054692,1676060969.054823,19.000000,0.000000,4296.153809,4273.717773,4304.102539,4308.205078,4288.333496,4295.769043,4280.641113,4306.666504,4295.641113,4278.077148,4464.102539,4523.589844,4367.307617,4405.000000,0.000000,4.000000,83.000000,,,,0.000000,4.000000,4.000000,4.000000,4.000000,4.000000,4.000000,4.000000,4.000000,4.000000,4.000000,4.000000,4.000000,4.000000,4.000000,100.000000,,,,,,,,,,,,,,,,,,,,,,,,,,,,,,,,,,,,,,,,,,,,,,,,,,,,,,,,,,,,,,,,,,,,,,,,,,,,,,,,,,,,,,
1676060969.062500,1676060969.062631,20.000000,0.000000,4294.871582,4276.922852,4301.153809,4312.179688,4279.230957,4292.820313,4289.487305,4297.820313,4286.410156,4280.256348,4453.717773,4520.897461,4361.153809,4403.333496,0.000000,4.000000,83.000000,,,,0.000000,4.000000,4.000000,4.000000,4.000000,4.000000,4.000000,4.000000,4.000000,4.000000,4.000000,4.000000,4.000000,4.000000,4.000000,100.000000,,,,,,,,,,,,,,,,,,,,,,,,,,,,,,,,,,,,,,,,,,,,,,,,,,,,,,,,,,,,,,,,,,,,,,,,,,,,,,,,,,,,,,
1676060969.070309,1676060969.070440,21.000000,0.000000,4291.282227,4281.538574,4295.256348,4311.153809,4282.820313,4293.077148,4294.615234,4295.769043,4275.641113,4266.410156,4448.461426,4508.333496,4344.615234,4392.820313,0.000000,4.000000,83.000000,,,,0.000000,4.000000,4.000000,4.000000,4.000000,4.000000,4.000000,4.000000,4.000000,4.000000,4.000000,4.000000,4.000000,4.000000,4.000000,100.000000,,,,,,,,,,,,,,,,,,,,,,,,,,,,,,,,,,,,,,,,,,,,,,,,,,,,,,,,,,,,,,,,,,,,,,,,,,,,,,,,,,,,,,
1676060969.078117,1676060969.078148,22.000000,0.000000,4292.179688,4283.717773,4300.512695,4310.769043,4295.256348,4300.769043,4298.974121,4305.256348,4278.974121,4267.948730,4457.948730,4511.538574,4353.461426,4397.307617,0.000000,4.000000,83.000000,,,,0.000000,4.000000,4.000000,4.000000,4.000000,4.000000,4.000000,4.000000,4.000000,4.000000,4.000000,4.000000,4.000000,4.000000,4.000000,100.000000,,,,,,,,,,,,,,,,,,,,,,,,,,,,,,,,,,,,,,,,,,,,,,,,,,,,,,,,,,,,,,,,,,,,,,,,,,,,,,,,,,,,,,
1676060969.085925,1676060969.086057,23.000000,0.000000,4298.589844,4286.282227,4310.128418,4316.153809,4295.897461,4303.205078,4306.025879,4311.922852,4285.256348,4284.487305,4464.358887,4525.000000,4373.717773,4413.205078,0.000000,4.000000,83.000000,,,,0.000000,4.000000,4.000000,4.000000,4.000000,4.000000,4.000000,4.000000,4.000000,4.000000,4.000000,4.000000,4.000000,4.000000,4.000000,100.000000,,,,,,,,,,,,,,,,,,,,,,,,,,,,,,,,,,,,,,,,,,,,,,,,,,,,,,,,,,,,,,,,,,,,,,,,,,,,,,,,,,,,,,
1676060969.093734,1676060969.093865,24.000000,0.000000,4298.589844,4282.692383,4311.025879,4316.922852,4288.461426,4297.948730,4302.948730,4310.641113,4280.897461,4284.487305,4464.487305,4527.820313,4371.282227,4414.743652,0.000000,4.000000,83.000000,,,,0.000000,4.000000,4.000000,4.000000,4.000000,4.000000,4.000000,4.000000,4.000000,4.000000,4.000000,4.000000,4.000000,4.000000,4.000000,100.000000,,,,,,,,,,,,,,,,,,,,,,,,,,,,,,,,,,,,,,,,,,,,,,,,,,,,,,,,,,,,,,,,,,,,,,,,,,,,,,,,,,,,,,
1676060969.101542,1676060969.101774,25.000000,0.000000,4295.384766,4278.846191,4310.897461,4309.487305,4281.666504,4292.179688,4294.487305,4310.641113,4277.948730,4273.974121,4468.717773,4526.666504,4361.666504,4409.230957,0.000000,4.000000,83.000000,,,,0.000000,4.000000,4.000000,4.000000,4.000000,4.000000,4.000000,4.000000,4.000000,4.000000,4.000000,4.000000,4.000000,4.000000,4.000000,100.000000,,,,,,,,,,,,,,,,,,,,,,,,,,,,,,,,,,,,,,,,,,,,,,,,,,,,,,,,,,,,,,,,,,,,,,,,,,,,,,,,,,,,,,
1676060969.109351,1676060969.109582,26.000000,0.000000,4301.794922,4286.538574,4312.179688,4309.615234,4276.025879,4292.563965,4295.128418,4311.666504,4283.205078,4271.538574,4469.102539,4533.077148,4363.717773,4411.538574,0.000000,4.000000,83.000000,,,,0.000000,4.000000,4.000000,4.000000,4.000000,4.000000,4.000000,4.000000,4.000000,4.000000,4.000000,4.000000,4.000000,4.000000,4.000000,100.000000,,,,,,,,,,,,,,,,,,,,,,,,,,,,,,,,,,,,,,,,,,,,,,,,,,,,,,,,,,,,,,,,,,,,,,,,,,,,,,,,,,,,,,
1676060969.117159,1676060969.117490,27.000000,0.000000,4312.051270,4294.743652,4315.512695,4321.538574,4289.871582,4300.000000,4305.641113,4311.666504,4292.563965,4280.256348,4468.974121,4540.000000,4370.512695,4420.512695,0.000000,4.000000,83.000000,,,,0.000000,4.000000,4.000000,4.000000,4.000000,4.000000,4.000000,4.000000,4.000000,4.000000,4.000000,4.000000,4.000000,4.000000,4.000000,100.000000,,,,,,,,,,,,,,,,,,,,,,,,,,,,,,,,,,,,,,,,,,,,,,,,,,,,,,,,,,,,,,,,,,,,,,,,,,,,,,,,,,,,,,
1676060969.124967,1676060969.125299,28.000000,0.000000,4312.820313,4292.436035,4324.230957,4328.205078,4312.820313,4304.743652,4311.538574,4313.589844,4299.230957,4286.153809,4478.461426,4544.487305,4373.717773,4428.974121,0.000000,4.000000,83.000000,,,,0.000000,4.000000,4.000000,4.000000,4.000000,4.000000,4.000000,4.000000,4.000000,4.000000,4.000000,4.000000,4.000000,4.000000,4.000000,100.000000,,,,,,,,,,,,,,,,,,,,,,,,,,,,,,,,,,,,,,,,,,,,,,,,,,,,,,,,,,,,,,,,,,,,,,,,,,,,,,,,,,,,,,
1676060969.132776,1676060969.133207,29.000000,0.000000,4313.461426,4294.871582,4328.589844,4328.461426,4309.487305,4301.538574,4303.333496,4314.102539,4295.000000,4282.563965,4481.282227,4543.461426,4373.461426,4427.692383,0.000000,4.000000,83.000000,,,,0.000000,4.000000,4.000000,4.000000,4.000000,4.000000,4.000000,4.000000,4.000000,4.000000,4.000000,4.000000,4.000000,4.000000,4.000000,100.000000,,,,,,,,,,,,,,,,,,,,,,,,,,,,,,,,,,,,,,,,,,,,,,,,,,,,,,,,,,,,,,,,,,,,,,,,,,,,,,,,,,,,,,
1676060969.140584,1676060969.141016,30.000000,0.000000,4321.153809,4297.179688,4319.358887,4322.436035,4294.871582,4296.410156,4293.461426,4307.436035,4285.256348,4279.358887,4471.666504,4531.410156,4374.743652,4420.256348,0.000000,4.000000,83.000000,1,1,1,0.000000,4.000000,4.000000,4.000000,4.000000,4.000000,4.000000,4.000000,4.000000,4.000000,4.000000,4.000000,4.000000,4.000000,4.000000,100.000000,,,,,,,,,,,,,,,,,0.667712,2.185830,0.468580,0.390806,0.304631,0.491108,1.003705,0.203196,0.491999,0.347495,0.897518,2.994009,0.234838,0.555144,0.277056,0.643875,1.531462,0.350176,0.244196,0.336685,0.482656,0.485413,0.239793,0.236860,0.315617,0.581005,0.451369,0.334628,0.285881,0.214475,0.719180,0.765914,0.706423,0.600285,0.198021,0.307858,0.371960,0.155137,0.223154,0.144550,0.786685,0.885383,0.391970,0.306453,0.230631,1.551464,1.197002,1.813345,0.694812,1.208752,2.322876,1.521543,0.330902,0.300292,0.630432,2.743459,3.192531,0.643874,0.630690,0.394051,1.512445,1.286113,0.584151,0.329276,0.727933,1.684963,2.651833,0.560705,0.479767,0.327124
1676060969.148393,1676060969.148924,31.000000,0.000000,4316.410156,4286.666504,4307.692383,4313.077148,4294.487305,4294.743652,4293.589844,4300.512695,4281.025879,4280.128418,4465.128418,4521.666504,4372.692383,4414.743652,0.000000,4.000000,83.000000,,,,0.000000,4.000000,4.000000,4.000000,4.000000,4.000000,4.000000,4.000000,4.000000,4.000000,4.000000,4.000000,4.000000,4.000000,4.000000,100.000000,,,,,,,,,,,,,,,,,,,,,,,,,,,,,,,,,,,,,,,,,,,,,,,,,,,,,,,,,,,,,,,,,,,,,,,,,,,,,,,,,,,,,,
1676060969.156201,1676060969.156732,32.000000,0.000000,4301.794922,4285.384766,4309.358887,4314.487305,4296.025879,4297.307617,4297.820313,4302.051270,4281.282227,4281.410156,4459.487305,4521.153809,4360.384766,4411.410156,0.000000,4.000000,83.000000,,,,0.000000,4.000000,4.000000,4.000000,4.000000,4.000000,4.000000,4.000000,4.000000,4.000000,4.000000,4.000000,4.000000,4.000000,4.000000,100.000000,,,,,,,,,,,,,,,,,,,,,,,,,,,,,,,,,,,,,,,,,,,,,,,,,,,,,,,,,,,,,,,,,,,,,,,,,,,,,,,,,,,,,,
1676060969.164009,1676060969.164541,33.000000,0.000000,4301.025879,4294.230957,4318.333496,4321.153809,4296.410156,4301.538574,4307.051270,4309.230957,4281.153809,4278.333496,4458.205078,4524.487305,4355.512695,4412.692383,0.000000,4.000000,83.000000,,,,0.000000,4.000000,4.000000,4.000000,4.000000,4.000000,4.000000,4.000000,4.000000,4.000000,4.000000,4.000000,4.000000,4.000000,4.000000,100.000000,,,,,,,,,,,,,,,,,,,,,,,,,,,,,,,,,,,,,,,,,,,,,,,,,,,,,,,,,,,,,,,,,,,,,,,,,,,,,,,,,,,,,,
1676060969.171818,1676060969.172349,34.000000,0.000000,4301.282227,4286.922852,4316.410156,4313.589844,4299.615234,4297.948730,4312.563965,4311.922852,4285.512695,4264.230957,4462.436035,4523.461426,4361.025879,4409.615234,0.000000,4.000000,83.000000,,,,0.000000,4.000000,4.000000,4.000000,4.000000,4.000000,4.000000,4.000000,4.000000,4.000000,4.000000,4.000000,4.000000,4.000000,4.000000,100.000000,,,,,,,,,,,,,,,,,,,,,,,,,,,,,,,,,,,,,,,,,,,,,,,,,,,,,,,,,,,,,,,,,,,,,,,,,,,,,,,,,,,,,,
1676060969.179626,1676060969.180058,35.000000,0.000000,4294.487305,4274.871582,4304.743652,4303.461426,4288.333496,4292.436035,4308.461426,4312.692383,4294.102539,4264.102539,4461.666504,4521.538574,4358.333496,4399.230957,0.000000,4.000000,83.000000,,,,0.000000,4.000000,4.000000,4.000000,4.000000,4.000000,4.000000,4.000000,4.000000,4.000000,4.000000,4.000000,4.000000,4.000000,4.000000,100.000000,,,,,,,,,,,,,,,,,,,,,,,,,,,,,,,,,,,,,,,,,,,,,,,,,,,,,,,,,,,,,,,,,,,,,,,,,,,,,,,,,,,,,,
1676060969.187435,1676060969.187866,36.000000,0.000000,4290.384766,4276.282227,4300.897461,4307.307617,4280.128418,4295.512695,4311.282227,4320.769043,4296.666504,4285.384766,4460.000000,4524.487305,4354.743652,4398.974121,0.000000,4.000000,83.000000,,,,0.000000,4.000000,4.000000,4.000000,4.000000,4.000000,4.000000,4.000000,4.000000,4.000000,4.000000,4.000000,4.000000,4.000000,4.000000,100.000000,,,,,,,,,,,,,,,,,,,,,,,,,,,,,,,,,,,,,,,,,,,,,,,,,,,,,,,,,,,,,,,,,,,,,,,,,,,,,,,,,,,,,,
1676060969.195243,1676060969.195575,37.000000,0.000000,4286.153809,4278.461426,4305.512695,4308.205078,4296.282227,4296.153809,4318.205078,4324.487305,4294.743652,4292.563965,4463.205078,4526.153809,4358.077148,4405.000000,0.000000,4.000000,83.000000,,,,0.000000,4.000000,4.000000,4.000000,4.000000,4.000000,4.000000,4.000000,4.000000,4.000000,4.000000,4.000000,4.000000,4.000000,4.000000,100.000000,,,,,,,,,,,,,,,,,,,,,,,,,,,,,,,,,,,,,,,,,,,,,,,,,,,,,,,,,,,,,,,,,,,,,,,,,,,,,,,,,,,,,,
1676060969.203051,1676060969.203383,38.000000,0.000000,4280.000000,4277.307617,4303.589844,4303.077148,4298.717773,4291.922852,4313.846191,4315.384766,4289.615234,4282.051270,4460.256348,4519.871582,4350.769043,4398.589844,0.000000,4.000000,83.000000,,,,0.000000,4.000000,4.000000,4.000000,4.000000,4.000000,4.000000,4.000000,4.000000,4.000000,4.000000,4.000000,4.000000,4.000000,4.000000,100.000000,,,,,,,,,,,,,,,,,,,,,,,,,,,,,,,,,,,,,,,,,,,,,,,,,,,,,,,,,,,,,,,,,,,,,,,,,,,,,,,,,,,,,,
1676060969.210860,1676060969.211092,39.000000,0.000000,4280.512695,4275.641113,4294.358887,4301.153809,4277.692383,4294.487305,4304.743652,4306.538574,4282.307617,4267.948730,4448.846191,4507.436035,4339.487305,4386.282227,0.000000,4.000000,83.000000,,,,0.000000,4.000000,4.000000,4.000000,4.000000,4.000000,4.000000,4.000000,4.000000,4.000000,4.000000,4.000000,4.000000,4.000000,4.000000,100.000000,,,,,,,,,,,,,,,,,,,,,,,,,,,,,,,,,,,,,,,,,,,,,,,,,,,,,,,,,,,,,,,,,,,,,,,,,,,,,,,,,,,,,,
1676060969.218668,1676060969.218900,40.000000,0.000000,4286.025879,4273.077148,4297.051270,4306.538574,4283.333496,4304.230957,4308.205078,4309.487305,4284.358887,4263.717773,4450.000000,4507.948730,4349.487305,4387.948730,0.000000,4.000000,83.000000,,,,0.000000,4.000000,4.000000,4.000000,4.000000,4.000000,4.000000,4.000000,4.000000,4.000000,4.000000,4.000000,4.000000,4.000000,4.000000,100.000000,,,,,,,,,,,,,,,,,,,,,,,,,,,,,,,,,,,,,,,,,,,,,,,,,,,,,,,,,,,,,,,,,,,,,,,,,,,,,,,,,,,,,,
1676060969.226477,1676060969.226609,41.000000,0.000000,4295.000000,4282.820313,4317.179688,4319.487305,4313.205078,4311.922852,4321.538574,4320.128418,4294.743652,4286.538574,4469.743652,4526.025879,4365.512695,4403.333496,0.000000,4.000000,83.000000,,,,0.000000,4.000000,4.000000,4.000000,4.000000,4.000000,4.000000,4.000000,4.000000,4.000000,4.000000,4.000000,4.000000,4.000000,4.000000,100.000000,,,,,,,,,,,,,,,,,,,,,,,,,,,,,,,,,,,,,,,,,,,,,,,,,,,,,,,,,,,,,,,,,,,,,,,,,,,,,,,,,,,,,,
1676060969.234285,1676060969.234517,42.000000,0.000000,4309.230957,4299.743652,4334.358887,4332.820313,4315.897461,4311.538574,4332.436035,4327.179688,4303.589844,4308.333496,4477.051270,4542.948730,4361.025879,4412.820313,0.000000,4.000000,83.000000,,,,0.000000,4.000000,4.000000,4.000000,4.000000,4.000000,4.000000,4.000000,4.000000,4.000000,4.000000,4.000000,4.000000,4.000000,4.000000,100.000000,,,,,,,,,,,,,,,,,,,,,,,,,,,,,,,,,,,,,,,,,,,,,,,,,,,,,,,,,,,,,,,,,,,,,,,,,,,,,,,,,,,,,,
1676060969.242093,1676060969.242326,43.000000,0.000000,4308.205078,4301.153809,4328.077148,4332.563965,4299.487305,4304.230957,4323.077148,4320.641113,4301.666504,4286.153809,4458.717773,4538.077148,4346.153809,4401.025879,0.000000,4.000000,83.000000,,,,0.000000,4.000000,4.000000,4.000000,4.000000,4.000000,4.000000,4.000000,4.000000,4.000000,4.000000,4.000000,4.000000,4.000000,4.000000,100.000000,,,,,,,,,,,,,,,,,,,,,,,,,,,,,,,,,,,,,,,,,,,,,,,,,,,,,,,,,,,,,,,,,,,,,,,,,,,,,,,,,,,,,,
1676060969.249902,1676060969.250134,44.000000,0.000000,4295.128418,4293.205078,4311.410156,4320.641113,4296.410156,4297.820313,4300.384766,4309.102539,4286.025879,4259.487305,4449.487305,4514.615234,4343.717773,4387.436035,0.000000,4.000000,83.000000,,,,0.000000,4.000000,4.000000,4.000000,4.000000,4.000000,4.000000,4.000000,4.000000,4.000000,4.000000,4.000000,4.000000,4.000000,4.000000,100.000000,,,,,,,,,,,,,,,,,,,,,,,,,,,,,,,,,,,,,,,,,,,,,,,,,,,,,,,,,,,,,,,,,,,,,,,,,,,,,,,,,,,,,,
1676060969.257710,1676060969.257843,45.000000,0.000000,4296.666504,4291.794922,4307.948730,4316.794922,4299.487305,4298.077148,4299.230957,4310.000000,4277.307617,4264.615234,4455.384766,4506.666504,4343.589844,4392.948730,0.000000,4.000000,83.000000,,,,0.000000,4.000000,4.000000,4.000000,4.000000,4.000000,4.000000,4.000000,4.000000,4.000000,4.000000,4.000000,4.000000,4.000000,4.000000,100.000000,,,,,,,,,,,,,,,,,,,,,,,,,,,,,,,,,,,,,,,,,,,,,,,,,,,,,,,,,,,,,,,,,,,,,,,,,,,,,,,,,,,,,,
1676060969.265519,1676060969.265651,46.000000,0.000000,4298.846191,4289.358887,4311.410156,4317.820313,4298.846191,4298.717773,4313.333496,4313.333496,4283.717773,4267.436035,4449.743652,4515.000000,4333.333496,4396.282227,0.000000,4.000000,83.000000,,,,0.000000,4.000000,4.000000,4.000000,4.000000,4.000000,4.000000,4.000000,4.000000,4.000000,4.000000,4.000000,4.000000,4.000000,4.000000,100.000000,,,,,,,,,,,,,,,,,0.756331,1.765603,0.516535,0.367405,0.319592,0.449696,0.784480,0.236457,0.449734,0.346671,0.998394,2.510049,0.253247,0.507225,0.271936,0.615669,1.270522,0.362412,0.230659,0.312472,0.575299,0.471263,0.209910,0.259749,0.327385,0.662081,0.476284,0.407284,0.272090,0.234994,0.860306,0.930994,0.854144,0.560861,0.198431,0.326426,0.378638,0.153722,0.210275,0.138220,0.953341,0.889805,0.412781,0.302399,0.233588,1.909166,1.236682,1.621838,0.821044,1.109214,2.718865,1.649348,0.415246,0.259536,0.620127,3.074684,2.994734,0.706157,0.596619,0.399650,1.714045,1.358514,0.707862,0.315161,0.749440,1.943946,2.458320,0.669958,0.426060,0.322371
1676060969.273327,1676060969.273360,47.000000,0.000000,4287.820313,4282.051270,4308.846191,4311.666504,4297.692383,4296.153809,4313.205078,4310.256348,4281.794922,4262.307617,4440.384766,4512.692383,4329.743652,4389.743652,0.000000,4.000000,83.000000,,,,0.000000,4.000000,4.000000,4.000000,4.000000,4.000000,4.000000,4.000000,4.000000,4.000000,4.000000,4.000000,4.000000,4.000000,4.000000,100.000000,,,,,,,,,,,,,,,,,,,,,,,,,,,,,,,,,,,,,,,,,,,,,,,,,,,,,,,,,,,,,,,,,,,,,,,,,,,,,,,,,,,,,,
1676060969.281135,1676060969.281168,48.000000,0.000000,4285.128418,4277.563965,4303.333496,4305.769043,4292.820313,4294.358887,4303.846191,4311.153809,4273.205078,4267.948730,4445.000000,4507.820313,4335.641113,4390.769043,0.000000,4.000000,83.000000,,,,0.000000,4.000000,4.000000,4.000000,4.000000,4.000000,4.000000,4.000000,4.000000,4.000000,4.000000,4.000000,4.000000,4.000000,4.000000,100.000000,,,,,,,,,,,,,,,,,,,,,,,,,,,,,,,,,,,,,,,,,,,,,,,,,,,,,,,,,,,,,,,,,,,,,,,,,,,,,,,,,,,,,,
1676060969.288944,1676060969.288877,49.000000,0.000000,4295.897461,4280.769043,4307.948730,4313.974121,4293.461426,4297.563965,4309.230957,4321.153809,4284.615234,4284.487305,4454.871582,4520.128418,4340.256348,4400.384766,0.000000,4.000000,83.000000,,,,0.000000,4.000000,4.000000,4.000000,4.000000,4.000000,4.000000,4.000000,4.000000,4.000000,4.000000,4.000000,4.000000,4.000000,4.000000,100.000000,,,,,,,,,,,,,,,,,,,,,,,,,,,,,,,,,,,,,,,,,,,,,,,,,,,,,,,,,,,,,,,,,,,,,,,,,,,,,,,,,,,,,,
1676060969.296752,1676060969.296785,50.000000,0.000000,4297.820313,4288.077148,4317.820313,4320.128418,4299.615234,4298.846191,4317.436035,4326.922852,4297.179688,4291.922852,4460.641113,4527.820313,4344.102539,4402.692383,0.000000,4.000000,83.000000,,,,0.000000,4.000000,4.000000,4.000000,4.000000,4.000000,4.000000,4.000000,4.000000,4.000000,4.000000,4.000000,4.000000,4.000000,4.000000,100.000000,,,,,,,,,,,,,,,,,,,,,,,,,,,,,,,,,,,,,,,,,,,,,,,,,,,,,,,,,,,,,,,,,,,,,,,,,,,,,,,,,,,,,,
1676060969.304561,1676060969.304593,51.000000,0.000000,4293.077148,4291.538574,4315.128418,4312.692383,4293.077148,4292.307617,4310.897461,4317.051270,4285.897461,4274.743652,4460.000000,4518.846191,4347.692383,4395.897461,0.000000,4.000000,83.000000,,,,0.000000,4.000000,4.000000,4.000000,4.000000,4.000000,4.000000,4.000000,4.000000,4.000000,4.000000,4.000000,4.000000,4.000000,4.000000,100.000000,,,,,,,,,,,,,,,,,,,,,,,,,,,,,,,,,,,,,,,,,,,,,,,,,,,,,,,,,,,,,,,,,,,,,,,,,,,,,,,,,,,,,,
1676060969.312369,1676060969.312502,52.000000,0.000000,4292.563965,4281.666504,4307.948730,4308.846191,4287.692383,4294.102539,4309.102539,4310.128418,4277.436035,4262.179688,4453.974121,4518.717773,4346.794922,4394.230957,0.000000,4.000000,83.000000,,,,0.000000,4.000000,4.000000,4.000000,4.000000,4.000000,4.000000,4.000000,4.000000,4.000000,4.000000,4.000000,4.000000,4.000000,4.000000,100.000000,,,,,,,,,,,,,,,,,,,,,,,,,,,,,,,,,,,,,,,,,,,,,,,,,,,,,,,,,,,,,,,,,,,,,,,,,,,,,,,,,,,,,,
1676060969.320177,1676060969.320310,53.000000,0.000000,4293.846191,4275.512695,4313.717773,4313.205078,4300.769043,4304.871582,4320.256348,4319.230957,4292.563965,4275.256348,4456.922852,4526.410156,4342.563965,4397.820313,0.000000,4.000000,83.000000,,,,0.000000,4.000000,4.000000,4.000000,4.000000,4.000000,4.000000,4.000000,4.000000,4.000000,4.000000,4.000000,4.000000,4.000000,4.000000,100.000000,,,,,,,,,,,,,,,,,,,,,,,,,,,,,,,,,,,,,,,,,,,,,,,,,,,,,,,,,,,,,,,,,,,,,,,,,,,,,,,,,,,,,,
1676060969.327986,1676060969.328219,54.000000,0.000000,4293.974121,4288.589844,4321.025879,4314.871582,4304.871582,4304.102539,4323.205078,4321.410156,4296.922852,4282.436035,4463.461426,4523.974121,4340.384766,4399.102539,0.000000,4.000000,83.000000,,,,0.000000,4.000000,4.000000,4.000000,4.000000,4.000000,4.000000,4.000000,4.000000,4.000000,4.000000,4.000000,4.000000,4.000000,4.000000,100.000000,,,,,,,,,,,,,,,,,,,,,,,,,,,,,,,,,,,,,,,,,,,,,,,,,,,,,,,,,,,,,,,,,,,,,,,,,,,,,,,,,,,,,,
1676060969.335794,1676060969.336027,55.000000,0.000000,4294.358887,4291.538574,4316.794922,4313.846191,4293.974121,4295.897461,4312.563965,4311.153809,4281.666504,4275.641113,4460.384766,4517.948730,4344.358887,4401.025879,0.000000,4.000000,83.000000,,,,0.000000,4.000000,4.000000,4.000000,4.000000,4.000000,4.000000,4.000000,4.000000,4.000000,4.000000,4.000000,4.000000,4.000000,4.000000,100.000000,,,,,,,,,,,,,,,,,,,,,,,,,,,,,,,,,,,,,,,,,,,,,,,,,,,,,,,,,,,,,,,,,,,,,,,,,,,,,,,,,,,,,,
1676060969.343603,1676060969.343935,56.000000,0.000000,4295.897461,4282.436035,4319.871582,4319.230957,4295.384766,4296.025879,4311.538574,4313.333496,4285.897461,4281.794922,4459.615234,4523.205078,4351.666504,4409.230957,0.000000,4.000000,83.000000,,,,0.000000,4.000000,4.000000,4.000000,4.000000,4.000000,4.000000,4.000000,4.000000,4.000000,4.000000,4.000000,4.000000,4.000000,4.000000,100.000000,,,,,,,,,,,,,,,,,,,,,,,,,,,,,,,,,,,,,,,,,,,,,,,,,,,,,,,,,,,,,,,,,,,,,,,,,,,,,,,,,,,,,,
1676060969.351411,1676060969.351744,57.000000,0.000000,4296.025879,4285.256348,4326.666504,4321.153809,4301.153809,4296.025879,4314.743652,4319.743652,4296.025879,4292.051270,4460.897461,4528.077148,4346.282227,4408.846191,0.000000,4.000000,83.000000,,,,0.000000,4.000000,4.000000,4.000000,4.000000,4.000000,4.000000,4.000000,4.000000,4.000000,4.000000,4.000000,4.000000,4.000000,4.000000,100.000000,,,,,,,,,,,,,,,,,,,,,,,,,,,,,,,,,,,,,,,,,,,,,,,,,,,,,,,,,,,,,,,,,,,,,,,,,,,,,,,,,,,,,,
1676060969.359219,1676060969.359652,58.000000,0.000000,4294.615234,4294.743652,4318.846191,4316.922852,4294.743652,4291.025879,4309.358887,4312.307617,4286.538574,4281.666504,4457.436035,4520.769043,4336.538574,4397.436035,0.000000,4.000000,83.000000,,,,0.000000,4.000000,4.000000,4.000000,4.000000,4.000000,4.000000,4.000000,4.000000,4.000000,4.000000,4.000000,4.000000,4.000000,4.000000,100.000000,,,,,,,,,,,,,,,,,,,,,,,,,,,,,,,,,,,,,,,,,,,,,,,,,,,,,,,,,,,,,,,,,,,,,,,,,,,,,,,,,,,,,,
1676060969.367028,1676060969.367461,59.000000,0.000000,4298.717773,4293.333496,4310.897461,4314.615234,4295.128418,4295.641113,4312.307617,4314.358887,4289.358887,4262.563965,4458.205078,4520.256348,4348.974121,4402.179688,0.000000,4.000000,83.000000,,,,0.000000,4.000000,4.000000,4.000000,4.000000,4.000000,4.000000,4.000000,4.000000,4.000000,4.000000,4.000000,4.000000,4.000000,4.000000,100.000000,,,,,,,,,,,,,,,,,,,,,,,,,,,,,,,,,,,,,,,,,,,,,,,,,,,,,,,,,,,,,,,,,,,,,,,,,,,,,,,,,,,,,,
1676060969.374836,1676060969.375169,60.000000,0.000000,4302.051270,4282.692383,4311.922852,4312.179688,4298.846191,4298.974121,4316.794922,4322.948730,4300.384766,4266.025879,4460.641113,4525.769043,4359.871582,4412.436035,0.000000,4.000000,83.000000,,,,0.000000,4.000000,4.000000,4.000000,4.000000,4.000000,4.000000,4.000000,4.000000,4.000000,4.000000,4.000000,4.000000,4.000000,4.000000,100.000000,,,,,,,,,,,,,,,,,,,,,,,,,,,,,,,,,,,,,,,,,,,,,,,,,,,,,,,,,,,,,,,,,,,,,,,,,,,,,,,,,,,,,,
1676060969.382645,1676060969.382978,61.000000,0.000000,4296.025879,4282.307617,4311.025879,4310.256348,4289.743652,4293.333496,4310.897461,4314.615234,4288.974121,4286.794922,4459.358887,4521.922852,4351.025879,4407.051270,0.000000,4.000000,83.000000,,,,0.000000,4.000000,4.000000,4.000000,4.000000,4.000000,4.000000,4.000000,4.000000,4.000000,4.000000,4.000000,4.000000,4.000000,4.000000,100.000000,,,,,,,,,,,,,,,,,,,,,,,,,,,,,,,,,,,,,,,,,,,,,,,,,,,,,,,,,,,,,,,,,,,,,,,,,,,,,,,,,,,,,,
1676060969.390453,1676060969.390686,62.000000,0.000000,4293.717773,4290.000000,4312.307617,4313.589844,4290.000000,4298.077148,4313.589844,4312.051270,4280.128418,4277.436035,4458.077148,4519.102539,4347.051270,4400.641113,0.000000,4.000000,83.000000,,,,0.000000,4.000000,4.000000,4.000000,4.000000,4.000000,4.000000,4.000000,4.000000,4.000000,4.000000,4.000000,4.000000,4.000000,4.000000,100.000000,,,,,,,,,,,,,,,,,0.916968,1.392142,0.525686,0.325867,0.319801,0.449120,0.644604,0.262528,0.393593,0.339153,1.122821,2.070988,0.269681,0.438614,0.265538,0.618488,1.039491,0.355629,0.219462,0.278758,0.649524,0.447157,0.190095,0.285872,0.337134,0.776299,0.505250,0.499517,0.255394,0.238829,0.921171,1.084038,0.948066,0.507206,0.203916,0.333927,0.385729,0.154120,0.197743,0.130028,1.018705,0.969530,0.444044,0.301086,0.228924,2.086668,1.187323,1.336223,0.936684,0.968782,2.982744,1.680812,0.501025,0.236836,0.594420,3.315455,2.689187,0.765255,0.539471,0.390468,1.841857,1.358747,0.800218,0.300065,0.721042,2.201900,2.252116,0.800426,0.367040,0.317371
1676060969.398261,1676060969.398495,63.000000,0.000000,4300.128418,4292.692383,4315.256348,4313.461426,4303.461426,4304.358887,4320.256348,4323.333496,4289.743652,4256.282227,4458.205078,4521.153809,4350.641113,4401.538574,0.000000,4.000000,83.000000,,,,0.000000,4.000000,4.000000,4.000000,4.000000,4.000000,4.000000,4.000000,4.000000,4.000000,4.000000,4.000000,4.000000,4.000000,4.000000,100.000000,,,,,,,,,,,,,,,,,,,,,,,,,,,,,,,,,,,,,,,,,,,,,,,,,,,,,,,,,,,,,,,,,,,,,,,,,,,,,,,,,,,,,,
1676060969.406070,1676060969.406203,64.000000,0.000000,4302.948730,4289.743652,4311.794922,4310.384766,4305.384766,4298.461426,4314.102539,4324.487305,4292.179688,4278.717773,4465.256348,4522.948730,4354.358887,4404.102539,2548.000000,4.000000,83.000000,,,,0.000000,4.000000,4.000000,4.000000,4.000000,4.000000,4.000000,4.000000,4.000000,4.000000,4.000000,4.000000,4.000000,4.000000,4.000000,100.000000,,,,,,,,,,,,,,,,,,,,,,,,,,,,,,,,,,,,,,,,,,,,,,,,,,,,,,,,,,,,,,,,,,,,,,,,,,,,,,,,,,,,,,
1676060969.413878,1676060969.414012,65.000000,0.000000,4303.974121,4292.563965,4318.461426,4318.846191,4297.179688,4294.102539,4309.743652,4319.871582,4292.179688,4300.384766,4476.922852,4529.871582,4363.846191,4410.000000,2476.000000,4.000000,83.000000,,,,0.000000,4.000000,4.000000,4.000000,4.000000,4.000000,4.000000,4.000000,4.000000,4.000000,4.000000,4.000000,4.000000,4.000000,4.000000,100.000000,,,,,,,,,,,,,,,,,,,,,,,,,,,,,,,,,,,,,,,,,,,,,,,,,,,,,,,,,,,,,,,,,,,,,,,,,,,,,,,,,,,,,,
1676060969.421687,1676060969.421720,66.000000,0.000000,4310.769043,4297.436035,4335.000000,4329.102539,4295.769043,4298.333496,4314.230957,4318.077148,4294.230957,4283.205078,4474.487305,4533.077148,4369.358887,4416.282227,2332.000000,4.000000,83.000000,,,,0.000000,4.000000,4.000000,4.000000,4.000000,4.000000,4.000000,4.000000,4.000000,4.000000,4.000000,4.000000,4.000000,4.000000,4.000000,100.000000,,,,,,,,,,,,,,,,,,,,,,,,,,,,,,,,,,,,,,,,,,,,,,,,,,,,,,,,,,,,,,,,,,,,,,,,,,,,,,,,,,,,,,
1676060969.429495,1676060969.429529,67.000000,0.000000,4312.563965,4295.384766,4333.717773,4324.743652,4300.128418,4296.922852,4311.794922,4311.794922,4285.128418,4268.717773,4462.820313,4524.615234,4359.743652,4414.487305,2444.000000,4.000000,83.000000,,,,0.000000,4.000000,4.000000,4.000000,4.000000,4.000000,4.000000,4.000000,4.000000,4.000000,4.000000,4.000000,4.000000,4.000000,4.000000,100.000000,,,,,,,,,,,,,,,,,,,,,,,,,,,,,,,,,,,,,,,,,,,,,,,,,,,,,,,,,,,,,,,,,,,,,,,,,,,,,,,,,,,,,,
1676060969.437303,1676060969.437237,68.000000,0.000000,4309.871582,4293.846191,4326.666504,4324.615234,4307.948730,4295.000000,4310.512695,4308.461426,4278.333496,4273.205078,4459.871582,4524.743652,4351.025879,4411.282227,2488.000000,4.000000,83.000000,,,,0.000000,4.000000,4.000000,4.000000,4.000000,4.000000,4.000000,4.000000,4.000000,4.000000,4.000000,4.000000,4.000000,4.000000,4.000000,100.000000,,,,,,,,,,,,,,,,,,,,,,,,,,,,,,,,,,,,,,,,,,,,,,,,,,,,,,,,,,,,,,,,,,,,,,,,,,,,,,,,,,,,,,
1676060969.445112,1676060969.445046,69.000000,0.000000,4314.102539,4296.794922,4331.922852,4334.743652,4312.307617,4299.743652,4315.769043,4311.153809,4281.666504,4275.384766,4463.205078,4527.436035,4349.487305,4411.282227,2135.000000,4.000000,83.000000,,,,0.000000,4.000000,4.000000,4.000000,4.000000,4.000000,4.000000,4.000000,4.000000,4.000000,4.000000,4.000000,4.000000,4.000000,4.000000,100.000000,,,,,,,,,,,,,,,,,,,,,,,,,,,,,,,,,,,,,,,,,,,,,,,,,,,,,,,,,,,,,,,,,,,,,,,,,,,,,,,,,,,,,,
1676060969.452920,1676060969.452754,70.000000,0.000000,4321.410156,4307.307617,4337.436035,4339.358887,4310.128418,4306.794922,4319.743652,4313.846191,4281.794922,4276.922852,4472.179688,4523.846191,4355.512695,4418.717773,2399.000000,4.000000,83.000000,,,,0.000000,4.000000,4.000000,4.000000,4.000000,4.000000,4.000000,4.000000,4.000000,4.000000,4.000000,4.000000,4.000000,4.000000,4.000000,100.000000,,,,,,,,,,,,,,,,,,,,,,,,,,,,,,,,,,,,,,,,,,,,,,,,,,,,,,,,,,,,,,,,,,,,,,,,,,,,,,,,,,,,,,
1676060969.460729,1676060969.460662,71.000000,0.000000,4322.563965,4309.358887,4337.051270,4334.615234,4309.102539,4312.820313,4326.538574,4322.051270,4281.794922,4282.179688,4478.717773,4532.563965,4367.948730,4428.717773,1790.000000,4.000000,83.000000,,,,0.000000,4.000000,4.000000,4.000000,4.000000,4.000000,4.000000,4.000000,4.000000,4.000000,4.000000,4.000000,4.000000,4.000000,4.000000,100.000000,,,,,,,,,,,,,,,,,,,,,,,,,,,,,,,,,,,,,,,,,,,,,,,,,,,,,,,,,,,,,,,,,,,,,,,,,,,,,,,,,,,,,,
1676060969.468537,1676060969.468471,72.000000,0.000000,4312.948730,4290.256348,4327.948730,4322.948730,4304.615234,4304.102539,4326.666504,4323.717773,4283.205078,4274.615234,4467.563965,4532.820313,4357.179688,4417.563965,2246.000000,4.000000,83.000000,,,,0.000000,4.000000,4.000000,4.000000,4.000000,4.000000,4.000000,4.000000,4.000000,4.000000,4.000000,4.000000,4.000000,4.000000,4.000000,100.000000,,,,,,,,,,,,,,,,,,,,,,,,,,,,,,,,,,,,,,,,,,,,,,,,,,,,,,,,,,,,,,,,,,,,,,,,,,,,,,,,,,,,,,
1676060969.476345,1676060969.476379,73.000000,0.000000,4295.512695,4275.769043,4310.000000,4310.769043,4296.794922,4289.871582,4312.820313,4310.128418,4276.666504,4258.205078,4449.871582,4507.051270,4333.205078,4392.307617,2515.000000,4.000000,83.000000,,,,0.000000,4.000000,4.000000,4.000000,4.000000,4.000000,4.000000,4.000000,4.000000,4.000000,4.000000,4.000000,4.000000,4.000000,4.000000,100.000000,,,,,,,,,,,,,,,,,,,,,,,,,,,,,,,,,,,,,,,,,,,,,,,,,,,,,,,,,,,,,,,,,,,,,,,,,,,,,,,,,,,,,,
1676060969.484154,1676060969.484188,74.000000,0.000000,4290.128418,4278.461426,4304.487305,4310.000000,4297.436035,4297.436035,4310.000000,4310.897461,4280.384766,4264.615234,4457.820313,4499.871582,4345.512695,4395.128418,2702.000000,4.000000,83.000000,,,,0.000000,4.000000,4.000000,4.000000,4.000000,4.000000,4.000000,4.000000,4.000000,4.000000,4.000000,4.000000,4.000000,4.000000,4.000000,100.000000,,,,,,,,,,,,,,,,,,,,,,,,,,,,,,,,,,,,,,,,,,,,,,,,,,,,,,,,,,,,,,,,,,,,,,,,,,,,,,,,,,,,,,
1676060969.491962,1676060969.492096,75.000000,0.000000,4294.615234,4278.846191,4310.512695,4311.922852,4298.846191,4306.922852,4319.230957,4323.077148,4296.025879,4281.025879,4472.051270,4513.589844,4365.384766,4410.512695,2655.000000,4.000000,83.000000,,,,0.000000,4.000000,4.000000,4.000000,4.000000,4.000000,4.000000,4.000000,4.000000,4.000000,4.000000,4.000000,4.000000,4.000000,4.000000,100.000000,,,,,,,,,,,,,,,,,,,,,,,,,,,,,,,,,,,,,,,,,,,,,,,,,,,,,,,,,,,,,,,,,,,,,,,,,,,,,,,,,,,,,,
1676060969.499771,1676060969.499904,76.000000,0.000000,4291.666504,4274.871582,4308.846191,4305.000000,4295.512695,4295.897461,4315.512695,4317.051270,4290.128418,4270.128418,4458.974121,4506.410156,4353.717773,4402.820313,3019.000000,4.000000,83.000000,,,,0.000000,4.000000,4.000000,4.000000,4.000000,4.000000,4.000000,4.000000,4.000000,4.000000,4.000000,4.000000,4.000000,4.000000,4.000000,100.000000,,,,,,,,,,,,,,,,,,,,,,,,,,,,,,,,,,,,,,,,,,,,,,,,,,,,,,,,,,,,,,,,,,,,,,,,,,,,,,,,,,,,,,
1676060969.507579,1676060969.507813,77.000000,0.000000,4291.666504,4276.922852,4306.666504,4307.948730,4296.025879,4290.897461,4307.692383,4307.307617,4278.974121,4264.358887,4453.461426,4500.769043,4348.333496,4400.128418,3274.000000,4.000000,83.000000,,,,0.000000,4.000000,4.000000,4.000000,4.000000,4.000000,4.000000,4.000000,4.000000,4.000000,4.000000,4.000000,4.000000,4.000000,4.000000,100.000000,,,,,,,,,,,,,,,,,,,,,,,,,,,,,,,,,,,,,,,,,,,,,,,,,,,,,,,,,,,,,,,,,,,,,,,,,,,,,,,,,,,,,,
1676060969.515387,1676060969.515621,78.000000,0.000000,4300.897461,4279.871582,4309.358887,4317.820313,4297.307617,4296.794922,4306.538574,4310.769043,4283.974121,4277.179688,4465.128418,4514.743652,4357.051270,4413.461426,2702.000000,4.000000,83.000000,,,,0.000000,4.000000,4.000000,4.000000,4.000000,4.000000,4.000000,4.000000,4.000000,4.000000,4.000000,4.000000,4.000000,4.000000,4.000000,100.000000,1.000000,100.000000,4.000000,4.000000,4.000000,4.000000,4.000000,4.000000,4.000000,4.000000,4.000000,4.000000,4.000000,4.000000,4.000000,4.000000,1.119261,1.152640,0.494251,0.275542,0.304484,0.493146,0.604258,0.271262,0.341922,0.326892,1.258944,1.763183,0.289561,0.364179,0.260654,0.637418,0.890915,0.327870,0.210232,0.242582,0.669228,0.426552,0.179253,0.311370,0.346384,0.920040,0.527146,0.598956,0.240331,0.224489,0.875979,1.192969,0.953169,0.461137,0.213744,0.312004,0.402315,0.158311,0.190945,0.121523,0.970117,1.105078,0.476647,0.301527,0.217777,2.001979,1.051507,1.032825,1.013742,0.817327,2.955085,1.607500,0.577053,0.233444,0.553257,3.304764,2.308714,0.848198,0.470957,0.370191,1.818021,1.294872,0.844029,0.286185,0.647178,2.382184,2.049052,0.930484,0.312357,0.316269
1676060969.523196,1676060969.523530,79.000000,0.000000,4306.922852,4287.820313,4312.820313,4320.512695,4295.384766,4293.846191,4301.025879,4311.794922,4283.974121,4275.512695,4465.641113,4514.743652,4356.410156,4415.897461,2655.000000,4.000000,83.000000,,,,0.000000,4.000000,4.000000,4.000000,4.000000,4.000000,4.000000,4.000000,4.000000,4.000000,4.000000,4.000000,4.000000,4.000000,4.000000,100.000000,,,,,,,,,,,,,,,,,,,,,,,,,,,,,,,,,,,,,,,,,,,,,,,,,,,,,,,,,,,,,,,,,,,,,,,,,,,,,,,,,,,,,,
1676060969.531004,1676060969.531338,80.000000,0.000000,4313.077148,4298.077148,4322.563965,4324.102539,4296.794922,4288.461426,4296.153809,4306.025879,4278.846191,4272.051270,4465.384766,4508.846191,4363.461426,4414.615234,3019.000000,4.000000,83.000000,,,,0.000000,4.000000,4.000000,4.000000,4.000000,4.000000,4.000000,4.000000,4.000000,4.000000,4.000000,4.000000,4.000000,4.000000,4.000000,100.000000,,,,,,,,,,,,,,,,,,,,,,,,,,,,,,,,,,,,,,,,,,,,,,,,,,,,,,,,,,,,,,,,,,,,,,,,,,,,,,,,,,,,,,
1676060969.538813,1676060969.539246,81.000000,0.000000,4312.436035,4290.128418,4325.128418,4321.153809,4296.922852,4285.000000,4296.282227,4300.384766,4281.538574,4272.948730,4472.563965,4511.025879,4369.230957,4419.230957,3274.000000,4.000000,83.000000,,,,0.000000,4.000000,4.000000,4.000000,4.000000,4.000000,4.000000,4.000000,4.000000,4.000000,4.000000,4.000000,4.000000,4.000000,4.000000,100.000000,,,,,,,,,,,,,,,,,,,,,,,,,,,,,,,,,,,,,,,,,,,,,,,,,,,,,,,,,,,,,,,,,,,,,,,,,,,,,,,,,,,,,,
1676060969.546621,1676060969.547055,82.000000,0.000000,4298.077148,4276.794922,4313.077148,4310.512695,4292.179688,4280.384766,4294.743652,4300.256348,4277.820313,4271.025879,4466.922852,4507.307617,4353.717773,4415.512695,2702.000000,4.000000,83.000000,,,,0.000000,4.000000,4.000000,4.000000,4.000000,4.000000,4.000000,4.000000,4.000000,4.000000,4.000000,4.000000,4.000000,4.000000,4.000000,100.000000,,,,,,,,,,,,,,,,,,,,,,,,,,,,,,,,,,,,,,,,,,,,,,,,,,,,,,,,,,,,,,,,,,,,,,,,,,,,,,,,,,,,,,
1676060969.554429,1676060969.554763,83.000000,0.000000,4291.794922,4278.589844,4307.436035,4308.077148,4289.358887,4279.487305,4292.692383,4306.153809,4272.948730,4267.563965,4452.692383,4501.153809,4343.589844,4407.820313,2655.000000,4.000000,83.000000,,,,0.000000,4.000000,4.000000,4.000000,4.000000,4.000000,4.000000,4.000000,4.000000,4.000000,4.000000,4.000000,4.000000,4.000000,4.000000,100.000000,,,,,,,,,,,,,,,,,,,,,,,,,,,,,,,,,,,,,,,,,,,,,,,,,,,,,,,,,,,,,,,,,,,,,,,,,,,,,,,,,,,,,,
1676060969.562238,1676060969.562572,84.000000,0.000000,4296.025879,4282.436035,4311.922852,4311.025879,4288.333496,4283.333496,4295.000000,4309.358887,4280.897461,4259.487305,4449.743652,4502.692383,4343.205078,4405.000000,3019.000000,4.000000,83.000000,,,,0.000000,4.000000,4.000000,4.000000,4.000000,4.000000,4.000000,4.000000,4.000000,4.000000,4.000000,4.000000,4.000000,4.000000,4.000000,100.000000,,,,,,,,,,,,,,,,,,,,,,,,,,,,,,,,,,,,,,,,,,,,,,,,,,,,,,,,,,,,,,,,,,,,,,,,,,,,,,,,,,,,,,
1676060969.570046,1676060969.570280,85.000000,0.000000,4295.128418,4280.641113,4312.436035,4311.666504,4290.897461,4289.743652,4301.666504,4309.102539,4283.717773,4255.897461,4453.717773,4506.922852,4343.333496,4404.871582,3274.000000,4.000000,83.000000,,,,0.000000,4.000000,4.000000,4.000000,4.000000,4.000000,4.000000,4.000000,4.000000,4.000000,4.000000,4.000000,4.000000,4.000000,4.000000,100.000000,,,,,,,,,,,,,,,,,,,,,,,,,,,,,,,,,,,,,,,,,,,,,,,,,,,,,,,,,,,,,,,,,,,,,,,,,,,,,,,,,,,,,,
1676060969.577855,1676060969.578089,86.000000,0.000000,4294.230957,4280.256348,4310.641113,4313.717773,4295.769043,4296.794922,4307.948730,4311.922852,4281.410156,4266.410156,4462.179688,4501.282227,4352.051270,4408.846191,2702.000000,4.000000,83.000000,,,,0.000000,4.000000,4.000000,4.000000,4.000000,4.000000,4.000000,4.000000,4.000000,4.000000,4.000000,4.000000,4.000000,4.000000,4.000000,100.000000,,,,,,,,,,,,,,,,,,,,,,,,,,,,,,,,,,,,,,,,,,,,,,,,,,,,,,,,,,,,,,,,,,,,,,,,,,,,,,,,,,,,,,
1676060969.585663,1676060969.585797,87.000000,0.000000,4294.871582,4280.641113,4310.641113,4313.461426,4297.436035,4295.256348,4307.563965,4306.538574,4282.436035,4268.077148,4454.358887,4494.487305,4349.615234,4405.128418,2655.000000,4.000000,83.000000,,,,0.000000,4.000000,4.000000,4.000000,4.000000,4.000000,4.000000,4.000000,4.000000,4.000000,4.000000,4.000000,4.000000,4.000000,4.000000,100.000000,,,,,,,,,,,,,,,,,,,,,,,,,,,,,,,,,,,,,,,,,,,,,,,,,,,,,,,,,,,,,,,,,,,,,,,,,,,,,,,,,,,,,,
1676060969.593471,1676060969.593606,88.000000,0.000000,4293.974121,4281.153809,4310.128418,4308.077148,4293.077148,4291.922852,4304.615234,4295.641113,4279.615234,4259.102539,4440.512695,4495.256348,4339.615234,4399.871582,3019.000000,4.000000,83.000000,,,,0.000000,4.000000,4.000000,4.000000,4.000000,4.000000,4.000000,4.000000,4.000000,4.000000,4.000000,4.000000,4.000000,4.000000,4.000000,100.000000,,,,,,,,,,,,,,,,,,,,,,,,,,,,,,,,,,,,,,,,,,,,,,,,,,,,,,,,,,,,,,,,,,,,,,,,,,,,,,,,,,,,,,
1676060969.601280,1676060969.601314,89.000000,0.000000,4293.846191,4279.871582,4310.128418,4309.102539,4292.436035,4295.128418,4306.794922,4296.666504,4275.769043,4266.410156,4451.666504,4496.666504,4346.282227,4404.871582,3274.000000,4.000000,83.000000,,,,0.000000,4.000000,4.000000,4.000000,4.000000,4.000000,4.000000,4.000000,4.000000,4.000000,4.000000,4.000000,4.000000,4.000000,4.000000,100.000000,,,,,,,,,,,,,,,,,,,,,,,,,,,,,,,,,,,,,,,,,,,,,,,,,,,,,,,,,,,,,,,,,,,,,,,,,,,,,,,,,,,,,,
1676060969.609088,1676060969.609123,90.000000,0.000000,4296.794922,4282.307617,4312.820313,4316.282227,4300.769043,4292.948730,4304.615234,4303.461426,4276.538574,4266.922852,4462.948730,4496.538574,4352.436035,4409.102539,2702.000000,4.000000,83.000000,,,,0.000000,4.000000,4.000000,4.000000,4.000000,4.000000,4.000000,4.000000,4.000000,4.000000,4.000000,4.000000,4.000000,4.000000,4.000000,100.000000,,,,,,,,,,,,,,,,,,,,,,,,,,,,,,,,,,,,,,,,,,,,,,,,,,,,,,,,,,,,,,,,,,,,,,,,,,,,,,,,,,,,,,
1676060969.616897,1676060969.616831,91.000000,0.000000,4304.230957,4292.051270,4319.230957,4321.153809,4302.820313,4287.179688,4297.820313,4305.897461,4278.846191,4259.487305,4468.205078,4508.974121,4356.153809,4415.384766,2655.000000,4.000000,83.000000,,,,0.000000,4.000000,4.000000,4.000000,4.000000,4.000000,4.000000,4.000000,4.000000,4.000000,4.000000,4.000000,4.000000,4.000000,4.000000,100.000000,,,,,,,,,,,,,,,,,,,,,,,,,,,,,,,,,,,,,,,,,,,,,,,,,,,,,,,,,,,,,,,,,,,,,,,,,,,,,,,,,,,,,,
1676060969.624705,1676060969.624640,92.000000,0.000000,4311.153809,4293.461426,4325.128418,4318.589844,4296.410156,4287.179688,4301.794922,4307.948730,4279.871582,4272.179688,4476.282227,4524.102539,4365.769043,4427.436035,3019.000000,4.000000,83.000000,,,,0.000000,4.000000,4.000000,4.000000,4.000000,4.000000,4.000000,4.000000,4.000000,4.000000,4.000000,4.000000,4.000000,4.000000,4.000000,100.000000,,,,,,,,,,,,,,,,,,,,,,,,,,,,,,,,,,,,,,,,,,,,,,,,,,,,,,,,,,,,,,,,,,,,,,,,,,,,,,,,,,,,,,
1676060969.632513,1676060969.632348,93.000000,0.000000,4312.692383,4290.897461,4328.333496,4322.307617,4297.051270,4294.871582,4313.589844,4311.666504,4284.102539,4284.615234,4472.436035,4523.333496,4364.743652,4430.128418,3274.000000,4.000000,83.000000,,,,0.000000,4.000000,4.000000,4.000000,4.000000,4.000000,4.000000,4.000000,4.000000,4.000000,4.000000,4.000000,4.000000,4.000000,4.000000,100.000000,,,,,,,,,,,,,,,,,,,,,,,,,,,,,,,,,,,,,,,,,,,,,,,,,,,,,,,,,,,,,,,,,,,,,,,,,,,,,,,,,,,,,,
1676060969.640322,1676060969.640157,94.000000,0.000000,4311.922852,4295.769043,4326.025879,4327.820313,4299.615234,4294.615234,4308.205078,4310.128418,4284.615234,4282.307617,4464.871582,4518.846191,4361.282227,4425.128418,2702.000000,4.000000,83.000000,,,,0.000000,4.000000,4.000000,4.000000,4.000000,4.000000,4.000000,4.000000,4.000000,4.000000,4.000000,4.000000,4.000000,4.000000,4.000000,100.000000,,,,,,,,,,,,,,,,,1.326775,1.087183,0.443679,0.230611,0.277116,0.576832,0.653273,0.265065,0.307780,0.312979,1.396284,1.636978,0.324820,0.305068,0.260302,0.668456,0.859921,0.289777,0.206071,0.211229,0.624092,0.425852,0.173731,0.334541,0.362178,1.060279,0.533294,0.685351,0.230016,0.197865,0.751686,1.240718,0.866023,0.436909,0.228581,0.260340,0.430971,0.167522,0.196001,0.115848,0.844132,1.242279,0.495044,0.309070,0.205913,1.672884,0.865601,0.772582,1.047849,0.694166,2.599627,1.464341,0.635054,0.253267,0.500781,3.016999,1.919207,0.973136,0.414690,0.346774,1.628998,1.197736,0.836458,0.281101,0.548912,2.440344,1.851513,1.036445,0.274454,0.321349
1676060969.648130,1676060969.647865,95.000000,0.000000,4311.410156,4293.589844,4319.487305,4319.615234,4292.563965,4285.769043,4296.025879,4309.743652,4278.077148,4279.871582,4470.000000,4521.538574,4364.358887,4425.128418,2655.000000,4.000000,83.000000,,,,0.000000,4.000000,4.000000,4.000000,4.000000,4.000000,4.000000,4.000000,4.000000,4.000000,4.000000,4.000000,4.000000,4.000000,4.000000,100.000000,,,,,,,,,,,,,,,,,,,,,,,,,,,,,,,,,,,,,,,,,,,,,,,,,,,,,,,,,,,,,,,,,,,,,,,,,,,,,,,,,,,,,,
1676060969.655939,1676060969.655774,96.000000,0.000000,4309.871582,4291.282227,4320.384766,4316.025879,4296.025879,4285.384766,4301.410156,4317.179688,4286.153809,4281.410156,4479.615234,4525.641113,4362.179688,4429.615234,3019.000000,4.000000,83.000000,,,,0.000000,4.000000,4.000000,4.000000,4.000000,4.000000,4.000000,4.000000,4.000000,4.000000,4.000000,4.000000,4.000000,4.000000,4.000000,100.000000,,,,,,,,,,,,,,,,,,,,,,,,,,,,,,,,,,,,,,,,,,,,,,,,,,,,,,,,,,,,,,,,,,,,,,,,,,,,,,,,,,,,,,
1676060969.663747,1676060969.663582,97.000000,0.000000,4308.461426,4293.077148,4324.358887,4320.769043,4305.897461,4284.615234,4307.563965,4318.974121,4297.820313,4277.179688,4471.922852,4524.871582,4357.051270,4429.358887,3274.000000,4.000000,83.000000,,,,0.000000,4.000000,4.000000,4.000000,4.000000,4.000000,4.000000,4.000000,4.000000,4.000000,4.000000,4.000000,4.000000,4.000000,4.000000,100.000000,,,,,,,,,,,,,,,,,,,,,,,,,,,,,,,,,,,,,,,,,,,,,,,,,,,,,,,,,,,,,,,,,,,,,,,,,,,,,,,,,,,,,,
1676060969.671555,1676060969.671490,98.000000,0.000000,4308.717773,4287.820313,4326.282227,4321.410156,4295.641113,4286.410156,4307.948730,4312.692383,4288.717773,4276.410156,4463.461426,4521.410156,4355.000000,4422.948730,2702.000000,4.000000,83.000000,,,,0.000000,4.000000,4.000000,4.000000,4.000000,4.000000,4.000000,4.000000,4.000000,4.000000,4.000000,4.000000,4.000000,4.000000,4.000000,100.000000,,,,,,,,,,,,,,,,,,,,,,,,,,,,,,,,,,,,,,,,,,,,,,,,,,,,,,,,,,,,,,,,,,,,,,,,,,,,,,,,,,,,,,
1676060969.679364,1676060969.679299,99.000000,0.000000,4307.563965,4286.410156,4327.436035,4323.717773,4283.461426,4293.205078,4308.846191,4313.205078,4279.102539,4269.230957,4469.230957,4518.717773,4351.538574,4418.205078,2655.000000,4.000000,83.000000,,,,0.000000,4.000000,4.000000,4.000000,4.000000,4.000000,4.000000,4.000000,4.000000,4.000000,4.000000,4.000000,4.000000,4.000000,4.000000,100.000000,,,,,,,,,,,,,,,,,,,,,,,,,,,,,,,,,,,,,,,,,,,,,,,,,,,,,,,,,,,,,,,,,,,,,,,,,,,,,,,,,,,,,,
1676060969.687172,1676060969.687207,100.000000,0.000000,4300.128418,4288.333496,4316.666504,4319.871582,4288.205078,4287.436035,4301.025879,4309.743652,4277.436035,4251.025879,4470.512695,4508.461426,4351.153809,4415.384766,3019.000000,4.000000,83.000000,,,,0.000000,4.000000,4.000000,4.000000,4.000000,4.000000,4.000000,4.000000,4.000000,4.000000,4.000000,4.000000,4.000000,4.000000,4.000000,100.000000,,,,,,,,,,,,,,,,,,,,,,,,,,,,,,,,,,,,,,,,,,,,,,,,,,,,,,,,,,,,,,,,,,,,,,,,,,,,,,,,,,,,,,
1676060969.694981,1676060969.695016,101.000000,0.000000,4292.436035,4282.179688,4305.512695,4307.948730,4296.410156,4281.666504,4291.666504,4297.692383,4268.717773,4258.717773,4456.538574,4497.307617,4350.000000,4408.717773,3274.000000,4.000000,83.000000,,,,0.000000,4.000000,4.000000,4.000000,4.000000,4.000000,4.000000,4.000000,4.000000,4.000000,4.000000,4.000000,4.000000,4.000000,4.000000,100.000000,,,,,,,,,,,,,,,,,,,,,,,,,,,,,,,,,,,,,,,,,,,,,,,,,,,,,,,,,,,,,,,,,,,,,,,,,,,,,,,,,,,,,,
1676060969.702789,1676060969.702924,102.000000,0.000000,4298.077148,4282.692383,4316.025879,4314.230957,4301.922852,4296.153809,4298.333496,4301.282227,4268.974121,4281.538574,4454.230957,4505.384766,4349.230957,4409.743652,2702.000000,4.000000,83.000000,,,,0.000000,4.000000,4.000000,4.000000,4.000000,4.000000,4.000000,4.000000,4.000000,4.000000,4.000000,4.000000,4.000000,4.000000,4.000000,100.000000,,,,,,,,,,,,,,,,,,,,,,,,,,,,,,,,,,,,,,,,,,,,,,,,,,,,,,,,,,,,,,,,,,,,,,,,,,,,,,,,,,,,,,
1676060969.710597,1676060969.710733,103.000000,0.000000,4309.615234,4295.256348,4329.743652,4329.871582,4304.743652,4299.230957,4302.436035,4313.077148,4282.051270,4283.333496,4472.948730,4521.794922,4359.230957,4422.692383,2655.000000,4.000000,83.000000,,,,0.000000,4.000000,4.000000,4.000000,4.000000,4.000000,4.000000,4.000000,4.000000,4.000000,4.000000,4.000000,4.000000,4.000000,4.000000,100.000000,,,,,,,,,,,,,,,,,,,,,,,,,,,,,,,,,,,,,,,,,,,,,,,,,,,,,,,,,,,,,,,,,,,,,,,,,,,,,,,,,,,,,,
1676060969.718406,1676060969.718641,104.000000,0.000000,4312.563965,4302.948730,4332.692383,4328.333496,4300.256348,4284.871582,4293.974121,4311.666504,4283.846191,4278.717773,4480.897461,4524.615234,4368.589844,4431.153809,3019.000000,4.000000,83.000000,,,,0.000000,4.000000,4.000000,4.000000,4.000000,4.000000,4.000000,4.000000,4.000000,4.000000,4.000000,4.000000,4.000000,4.000000,4.000000,100.000000,,,,,,,,,,,,,,,,,,,,,,,,,,,,,,,,,,,,,,,,,,,,,,,,,,,,,,,,,,,,,,,,,,,,,,,,,,,,,,,,,,,,,,
1676060969.726214,1676060969.726449,105.000000,0.000000,4312.307617,4299.743652,4333.205078,4325.769043,4296.538574,4288.333496,4294.615234,4307.179688,4280.000000,4278.077148,4476.666504,4523.974121,4367.436035,4429.230957,3274.000000,4.000000,83.000000,,,,0.000000,4.000000,4.000000,4.000000,4.000000,4.000000,4.000000,4.000000,4.000000,4.000000,4.000000,4.000000,4.000000,4.000000,4.000000,100.000000,,,,,,,,,,,,,,,,,,,,,,,,,,,,,,,,,,,,,,,,,,,,,,,,,,,,,,,,,,,,,,,,,,,,,,,,,,,,,,,,,,,,,,
1676060969.734022,1676060969.734358,106.000000,0.000000,4312.436035,4288.846191,4331.410156,4326.538574,4298.333496,4290.384766,4300.256348,4308.717773,4280.641113,4268.846191,4479.743652,4524.358887,4365.641113,4423.589844,2702.000000,4.000000,83.000000,,,,0.000000,4.000000,4.000000,4.000000,4.000000,4.000000,4.000000,4.000000,4.000000,4.000000,4.000000,4.000000,4.000000,4.000000,4.000000,100.000000,,,,,,,,,,,,,,,,,,,,,,,,,,,,,,,,,,,,,,,,,,,,,,,,,,,,,,,,,,,,,,,,,,,,,,,,,,,,,,,,,,,,,,
1676060969.741831,1676060969.742166,107.000000,0.000000,4303.077148,4281.666504,4326.538574,4318.974121,4298.846191,4279.743652,4299.358887,4310.897461,4281.025879,4263.846191,4480.128418,4516.794922,4356.025879,4415.384766,2655.000000,4.000000,83.000000,,,,0.000000,4.000000,4.000000,4.000000,4.000000,4.000000,4.000000,4.000000,4.000000,4.000000,4.000000,4.000000,4.000000,4.000000,4.000000,100.000000,,,,,,,,,,,,,,,,,,,,,,,,,,,,,,,,,,,,,,,,,,,,,,,,,,,,,,,,,,,,,,,,,,,,,,,,,,,,,,,,,,,,,,
1676060969.749639,1676060969.749875,108.000000,0.000000,4294.358887,4290.641113,4318.717773,4311.922852,4295.769043,4277.179688,4295.128418,4307.307617,4280.641113,4273.974121,4466.025879,4505.128418,4343.717773,4411.282227,3019.000000,4.000000,83.000000,,,,0.000000,4.000000,4.000000,4.000000,4.000000,4.000000,4.000000,4.000000,4.000000,4.000000,4.000000,4.000000,4.000000,4.000000,4.000000,100.000000,,,,,,,,,,,,,,,,,,,,,,,,,,,,,,,,,,,,,,,,,,,,,,,,,,,,,,,,,,,,,,,,,,,,,,,,,,,,,,,,,,,,,,
1676060969.757448,1676060969.757683,109.000000,0.000000,4300.128418,4298.589844,4314.358887,4311.153809,4294.743652,4283.333496,4303.205078,4304.358887,4279.871582,4280.641113,4461.025879,4505.000000,4354.230957,4421.410156,3274.000000,4.000000,83.000000,,,,0.000000,4.000000,4.000000,4.000000,4.000000,4.000000,4.000000,4.000000,4.000000,4.000000,4.000000,4.000000,4.000000,4.000000,4.000000,100.000000,,,,,,,,,,,,,,,,,,,,,,,,,,,,,,,,,,,,,,,,,,,,,,,,,,,,,,,,,,,,,,,,,,,,,,,,,,,,,,,,,,,,,,
1676060969.765256,1676060969.765392,110.000000,0.000000,4303.333496,4292.051270,4315.256348,4312.436035,4297.692383,4285.769043,4314.358887,4307.563965,4280.897461,4277.948730,4475.256348,4512.820313,4367.948730,4430.512695,2702.000000,4.000000,83.000000,,,,0.000000,4.000000,4.000000,4.000000,4.000000,4.000000,4.000000,4.000000,4.000000,4.000000,4.000000,4.000000,4.000000,4.000000,4.000000,100.000000,,,,,,,,,,,,,,,,,1.515335,1.190929,0.408858,0.203291,0.244400,0.695875,0.766537,0.258307,0.294755,0.300319,1.524622,1.698065,0.378928,0.277921,0.266670,0.721988,0.958495,0.258739,0.211104,0.189704,0.547514,0.458844,0.168785,0.354740,0.388943,1.162591,0.528612,0.737581,0.225490,0.169995,0.609694,1.235306,0.717828,0.434523,0.248632,0.203503,0.468117,0.182512,0.216040,0.116669,0.705911,1.321733,0.493526,0.329176,0.200958,1.217916,0.696033,0.585945,1.053834,0.631109,2.041386,1.314467,0.672421,0.300084,0.445158,2.574762,1.604748,1.130017,0.393443,0.329222,1.345473,1.110118,0.792188,0.294443,0.455221,2.389517,1.678395,1.100206,0.262399,0.332564
1676060969.773064,1676060969.773300,111.000000,0.000000,4295.128418,4281.794922,4312.563965,4313.333496,4297.820313,4283.333496,4305.897461,4310.384766,4279.871582,4276.794922,4477.179688,4508.461426,4358.461426,4424.871582,2655.000000,4.000000,83.000000,,,,0.000000,4.000000,4.000000,4.000000,4.000000,4.000000,4.000000,4.000000,4.000000,4.000000,4.000000,4.000000,4.000000,4.000000,4.000000,100.000000,,,,,,,,,,,,,,,,,,,,,,,,,,,,,,,,,,,,,,,,,,,,,,,,,,,,,,,,,,,,,,,,,,,,,,,,,,,,,,,,,,,,,,
1676060969.780873,1676060969.781108,112.000000,0.000000,4289.871582,4280.769043,4310.641113,4311.153809,4292.563965,4281.025879,4294.230957,4308.077148,4279.487305,4275.897461,4469.743652,4503.461426,4353.205078,4417.179688,3019.000000,4.000000,83.000000,,,,0.000000,4.000000,4.000000,4.000000,4.000000,4.000000,4.000000,4.000000,4.000000,4.000000,4.000000,4.000000,4.000000,4.000000,4.000000,100.000000,,,,,,,,,,,,,,,,,,,,,,,,,,,,,,,,,,,,,,,,,,,,,,,,,,,,,,,,,,,,,,,,,,,,,,,,,,,,,,,,,,,,,,
1676060969.788681,1676060969.789017,113.000000,0.000000,4295.128418,4290.769043,4320.769043,4313.846191,4293.589844,4281.282227,4297.179688,4311.282227,4289.230957,4277.051270,4474.230957,4516.025879,4366.922852,4420.641113,3274.000000,4.000000,83.000000,,,,0.000000,4.000000,4.000000,4.000000,4.000000,4.000000,4.000000,4.000000,4.000000,4.000000,4.000000,4.000000,4.000000,4.000000,4.000000,100.000000,,,,,,,,,,,,,,,,,,,,,,,,,,,,,,,,,,,,,,,,,,,,,,,,,,,,,,,,,,,,,,,,,,,,,,,,,,,,,,,,,,,,,,
1676060969.796490,1676060969.796825,114.000000,0.000000,4302.179688,4298.589844,4322.179688,4322.179688,4300.641113,4280.897461,4297.436035,4312.948730,4291.794922,4279.230957,4471.282227,4524.487305,4370.512695,4425.512695,2702.000000,4.000000,83.000000,,,,0.000000,4.000000,4.000000,4.000000,4.000000,4.000000,4.000000,4.000000,4.000000,4.000000,4.000000,4.000000,4.000000,4.000000,4.000000,100.000000,,,,,,,,,,,,,,,,,,,,,,,,,,,,,,,,,,,,,,,,,,,,,,,,,,,,,,,,,,,,,,,,,,,,,,,,,,,,,,,,,,,,,,
1676060969.804298,1676060969.804734,115.000000,0.000000,4303.589844,4296.025879,4311.666504,4321.538574,4302.179688,4277.948730,4286.666504,4301.025879,4279.743652,4275.512695,4462.563965,4511.282227,4362.179688,4423.974121,2655.000000,4.000000,83.000000,,,,0.000000,4.000000,4.000000,4.000000,4.000000,4.000000,4.000000,4.000000,4.000000,4.000000,4.000000,4.000000,4.000000,4.000000,4.000000,100.000000,,,,,,,,,,,,,,,,,,,,,,,,,,,,,,,,,,,,,,,,,,,,,,,,,,,,,,,,,,,,,,,,,,,,,,,,,,,,,,,,,,,,,,
1676060969.812106,1676060969.812542,116.000000,0.000000,4303.717773,4297.179688,4318.589844,4321.153809,4304.871582,4281.410156,4291.666504,4297.563965,4276.282227,4277.692383,4474.743652,4506.410156,4365.897461,4427.948730,3019.000000,4.000000,83.000000,,,,0.000000,4.000000,4.000000,4.000000,4.000000,4.000000,4.000000,4.000000,4.000000,4.000000,4.000000,4.000000,4.000000,4.000000,4.000000,100.000000,,,,,,,,,,,,,,,,,,,,,,,,,,,,,,,,,,,,,,,,,,,,,,,,,,,,,,,,,,,,,,,,,,,,,,,,,,,,,,,,,,,,,,
1676060969.819915,1676060969.820350,117.000000,0.000000,4302.436035,4298.077148,4326.153809,4324.358887,4307.307617,4281.794922,4303.333496,4305.512695,4278.589844,4278.461426,4481.666504,4511.410156,4367.436035,4425.384766,3274.000000,4.000000,83.000000,,,,0.000000,4.000000,4.000000,4.000000,4.000000,4.000000,4.000000,4.000000,4.000000,4.000000,4.000000,4.000000,4.000000,4.000000,4.000000,100.000000,,,,,,,,,,,,,,,,,,,,,,,,,,,,,,,,,,,,,,,,,,,,,,,,,,,,,,,,,,,,,,,,,,,,,,,,,,,,,,,,,,,,,,
1676060969.827723,1676060969.828059,118.000000,0.000000,4299.358887,4288.846191,4316.794922,4319.615234,4301.538574,4277.563965,4304.487305,4307.563965,4275.769043,4268.333496,4468.077148,4507.692383,4360.128418,4413.846191,2702.000000,4.000000,83.000000,,,,0.000000,4.000000,4.000000,4.000000,4.000000,4.000000,4.000000,4.000000,4.000000,4.000000,4.000000,4.000000,4.000000,4.000000,4.000000,100.000000,,,,,,,,,,,,,,,,,,,,,,,,,,,,,,,,,,,,,,,,,,,,,,,,,,,,,,,,,,,,,,,,,,,,,,,,,,,,,,,,,,,,,,
1676060969.835532,1676060969.835967,119.000000,0.000000,4297.820313,4285.769043,4310.384766,4317.051270,4301.922852,4285.128418,4311.025879,4309.358887,4283.205078,4268.077148,4467.307617,4509.102539,4355.641113,4412.051270,2655.000000,4.000000,83.000000,,,,0.000000,4.000000,4.000000,4.000000,4.000000,4.000000,4.000000,4.000000,4.000000,4.000000,4.000000,4.000000,4.000000,4.000000,4.000000,100.000000,,,,,,,,,,,,,,,,,,,,,,,,,,,,,,,,,,,,,,,,,,,,,,,,,,,,,,,,,,,,,,,,,,,,,,,,,,,,,,,,,,,,,,
1676060969.843340,1676060969.843776,120.000000,0.000000,4294.871582,4287.820313,4311.025879,4316.025879,4301.153809,4289.487305,4314.230957,4312.820313,4288.974121,4272.692383,4473.974121,4512.051270,4352.692383,4414.743652,3019.000000,4.000000,83.000000,,,,0.000000,4.000000,4.000000,4.000000,4.000000,4.000000,4.000000,4.000000,4.000000,4.000000,4.000000,4.000000,4.000000,4.000000,4.000000,100.000000,,,,,,,,,,,,,,,,,,,,,,,,,,,,,,,,,,,,,,,,,,,,,,,,,,,,,,,,,,,,,,,,,,,,,,,,,,,,,,,,,,,,,,
1676060969.851148,1676060969.851684,121.000000,0.000000,4288.846191,4283.077148,4309.102539,4308.846191,4291.666504,4282.563965,4310.000000,4310.000000,4284.487305,4264.487305,4464.230957,4504.743652,4351.410156,4409.871582,3274.000000,4.000000,83.000000,,,,0.000000,4.000000,4.000000,4.000000,4.000000,4.000000,4.000000,4.000000,4.000000,4.000000,4.000000,4.000000,4.000000,4.000000,4.000000,100.000000,,,,,,,,,,,,,,,,,,,,,,,,,,,,,,,,,,,,,,,,,,,,,,,,,,,,,,,,,,,,,,,,,,,,,,,,,,,,,,,,,,,,,,
1676060969.858957,1676060969.859493,122.000000,0.000000,4292.563965,4282.948730,4309.230957,4311.666504,4298.333496,4285.384766,4316.025879,4311.922852,4291.153809,4270.128418,4460.000000,4505.512695,4358.974121,4410.641113,2702.000000,4.000000,83.000000,,,,0.000000,4.000000,4.000000,4.000000,4.000000,4.000000,4.000000,4.000000,4.000000,4.000000,4.000000,4.000000,4.000000,4.000000,4.000000,100.000000,,,,,,,,,,,,,,,,,,,,,,,,,,,,,,,,,,,,,,,,,,,,,,,,,,,,,,,,,,,,,,,,,,,,,,,,,,,,,,,,,,,,,,
1676060969.866765,1676060969.867401,123.000000,0.000000,4296.025879,4285.769043,4310.769043,4318.333496,4306.025879,4291.025879,4316.153809,4315.256348,4293.077148,4285.384766,4466.410156,4509.487305,4362.563965,4416.538574,2655.000000,4.000000,83.000000,,,,0.000000,4.000000,4.000000,4.000000,4.000000,4.000000,4.000000,4.000000,4.000000,4.000000,4.000000,4.000000,4.000000,4.000000,4.000000,100.000000,,,,,,,,,,,,,,,,,,,,,,,,,,,,,,,,,,,,,,,,,,,,,,,,,,,,,,,,,,,,,,,,,,,,,,,,,,,,,,,,,,,,,,
1676060969.874574,1676060969.875209,124.000000,0.000000,4283.846191,4279.743652,4309.102539,4313.333496,4283.974121,4273.077148,4295.256348,4303.589844,4278.205078,4273.333496,4463.333496,4500.256348,4347.948730,4408.974121,3019.000000,4.000000,83.000000,,,,0.000000,4.000000,4.000000,4.000000,4.000000,4.000000,4.000000,4.000000,4.000000,4.000000,4.000000,4.000000,4.000000,4.000000,4.000000,100.000000,,,,,,,,,,,,,,,,,,,,,,,,,,,,,,,,,,,,,,,,,,,,,,,,,,,,,,,,,,,,,,,,,,,,,,,,,,,,,,,,,,,,,,
1676060969.882382,1676060969.883118,125.000000,0.000000,4287.948730,4283.205078,4320.000000,4314.358887,4274.230957,4259.743652,4289.871582,4301.538574,4275.384766,4261.025879,4464.487305,4500.128418,4350.128418,4413.846191,3274.000000,4.000000,83.000000,,,,0.000000,4.000000,4.000000,4.000000,4.000000,4.000000,4.000000,4.000000,4.000000,4.000000,4.000000,4.000000,4.000000,4.000000,4.000000,100.000000,,,,,,,,,,,,,,,,,,,,,,,,,,,,,,,,,,,,,,,,,,,,,,,,,,,,,,,,,,,,,,,,,,,,,,,,,,,,,,,,,,,,,,
1676060969.890190,1676060969.890926,126.000000,0.000000,4305.512695,4295.769043,4328.461426,4319.615234,4296.794922,4271.282227,4300.256348,4309.871582,4286.153809,4267.563965,4471.410156,4515.256348,4366.410156,4430.000000,2702.000000,4.000000,83.000000,,,,0.000000,4.000000,4.000000,4.000000,4.000000,4.000000,4.000000,4.000000,4.000000,4.000000,4.000000,4.000000,4.000000,4.000000,4.000000,100.000000,,,,,,,,,,,,,,,,,1.673693,1.416922,0.410991,0.197550,0.213352,0.834593,0.916647,0.264758,0.295531,0.290675,1.628303,1.897190,0.439088,0.285408,0.278980,0.804367,1.161850,0.248425,0.225700,0.179045,0.480326,0.522741,0.163310,0.370339,0.421997,1.200381,0.520365,0.740677,0.225318,0.151595,0.534054,1.189533,0.555890,0.442758,0.271496,0.163323,0.502796,0.200498,0.249227,0.126191,0.605561,1.306184,0.474468,0.361526,0.207838,0.782634,0.598191,0.471914,1.053973,0.636716,1.462264,1.208814,0.679436,0.372288,0.398021,2.140422,1.419394,1.265069,0.416384,0.322730,1.065941,1.062363,0.725269,0.329643,0.391448,2.269392,1.550127,1.095976,0.276040,0.347046
1676060969.897999,1676060969.898835,127.000000,0.000000,4300.769043,4292.563965,4316.153809,4312.436035,4299.871582,4272.436035,4287.820313,4300.000000,4278.205078,4267.436035,4462.820313,4508.846191,4352.948730,4420.256348,83.000000,4.000000,83.000000,,,,0.000000,4.000000,4.000000,4.000000,4.000000,4.000000,4.000000,4.000000,4.000000,4.000000,4.000000,4.000000,4.000000,4.000000,4.000000,100.000000,,,,,,,,,,,,,,,,,,,,,,,,,,,,,,,,,,,,,,,,,,,,,,,,,,,,,,,,,,,,,,,,,,,,,,,,,,,,,,,,,,,,,,
1676060969.905807,1676060969.906643,0.000000,0.000000,4294.743652,4289.615234,4310.128418,4308.717773,4286.666504,4263.461426,4273.461426,4289.102539,4267.692383,4266.153809,4453.589844,4489.358887,4337.179688,4408.846191,2560.000000,4.000000,83.000000,,,,0.000000,4.000000,4.000000,4.000000,4.000000,4.000000,4.000000,4.000000,4.000000,4.000000,4.000000,4.000000,4.000000,4.000000,4.000000,100.000000,,,,,,,,,,,,,,,,,,,,,,,,,,,,,,,,,,,,,,,,,,,,,,,,,,,,,,,,,,,,,,,,,,,,,,,,,,,,,,,,,,,,,,
1676060969.913616,1676060969.914551,1.000000,0.000000,4305.128418,4299.743652,4322.692383,4314.230957,4291.666504,4272.179688,4283.717773,4296.794922,4276.794922,4266.922852,4459.871582,4494.871582,4352.820313,4422.563965,2476.000000,4.000000,83.000000,,,,0.000000,4.000000,4.000000,4.000000,4.000000,4.000000,4.000000,4.000000,4.000000,4.000000,4.000000,4.000000,4.000000,4.000000,4.000000,100.000000,,,,,,,,,,,,,,,,,,,,,,,,,,,,,,,,,,,,,,,,,,,,,,,,,,,,,,,,,,,,,,,,,,,,,,,,,,,,,,,,,,,,,,
1676060969.921424,1676060969.922360,2.000000,0.000000,4304.615234,4300.256348,4326.153809,4316.025879,4299.487305,4285.897461,4297.051270,4303.077148,4283.077148,4260.769043,4463.461426,4511.282227,4364.358887,4431.025879,2346.000000,4.000000,83.000000,,,,0.000000,4.000000,4.000000,4.000000,4.000000,4.000000,4.000000,4.000000,4.000000,4.000000,4.000000,4.000000,4.000000,4.000000,4.000000,100.000000,,,,,,,,,,,,,,,,,,,,,,,,,,,,,,,,,,,,,,,,,,,,,,,,,,,,,,,,,,,,,,,,,,,,,,,,,,,,,,,,,,,,,,
1676060969.929232,1676060969.930168,3.000000,0.000000,4292.948730,4284.230957,4313.333496,4310.384766,4296.666504,4282.948730,4296.153809,4301.282227,4276.666504,4267.820313,4459.102539,4508.077148,4352.179688,4418.717773,2456.000000,4.000000,83.000000,,,,0.000000,4.000000,4.000000,4.000000,4.000000,4.000000,4.000000,4.000000,4.000000,4.000000,4.000000,4.000000,4.000000,4.000000,4.000000,100.000000,,,,,,,,,,,,,,,,,,,,,,,,,,,,,,,,,,,,,,,,,,,,,,,,,,,,,,,,,,,,,,,,,,,,,,,,,,,,,,,,,,,,,,
1676060969.937041,1676060969.938077,4.000000,0.000000,4293.846191,4279.743652,4312.307617,4304.487305,4293.846191,4278.333496,4294.230957,4303.461426,4275.128418,4278.846191,4464.487305,4499.615234,4346.153809,4416.666504,2494.000000,4.000000,83.000000,,,,0.000000,4.000000,4.000000,4.000000,4.000000,4.000000,4.000000,4.000000,4.000000,4.000000,4.000000,4.000000,4.000000,4.000000,4.000000,100.000000,,,,,,,,,,,,,,,,,,,,,,,,,,,,,,,,,,,,,,,,,,,,,,,,,,,,,,,,,,,,,,,,,,,,,,,,,,,,,,,,,,,,,,
1676060969.944849,1676060969.945885,5.000000,0.000000,4297.179688,4291.025879,4320.384766,4309.102539,4294.230957,4281.794922,4302.179688,4306.666504,4280.512695,4268.717773,4468.589844,4504.230957,4349.743652,4422.436035,2154.000000,4.000000,83.000000,,,,0.000000,4.000000,4.000000,4.000000,4.000000,4.000000,4.000000,4.000000,4.000000,4.000000,4.000000,4.000000,4.000000,4.000000,4.000000,100.000000,,,,,,,,,,,,,,,,,,,,,,,,,,,,,,,,,,,,,,,,,,,,,,,,,,,,,,,,,,,,,,,,,,,,,,,,,,,,,,,,,,,,,,
1676060969.952657,1676060969.953693,6.000000,0.000000,4290.512695,4291.410156,4319.615234,4314.487305,4296.538574,4284.743652,4314.743652,4312.563965,4283.974121,4268.461426,4468.205078,4509.487305,4361.922852,4422.820313,2409.000000,4.000000,83.000000,,,,0.000000,4.000000,4.000000,4.000000,4.000000,4.000000,4.000000,4.000000,4.000000,4.000000,4.000000,4.000000,4.000000,4.000000,4.000000,100.000000,,,,,,,,,,,,,,,,,,,,,,,,,,,,,,,,,,,,,,,,,,,,,,,,,,,,,,,,,,,,,,,,,,,,,,,,,,,,,,,,,,,,,,
1676060969.960466,1676060969.961402,7.000000,0.000000,4281.538574,4278.461426,4309.743652,4304.615234,4295.000000,4282.820313,4311.410156,4313.205078,4282.820313,4281.282227,4466.282227,4503.717773,4366.282227,4421.153809,1791.000000,4.000000,83.000000,,,,0.000000,4.000000,4.000000,4.000000,4.000000,4.000000,4.000000,4.000000,4.000000,4.000000,4.000000,4.000000,4.000000,4.000000,4.000000,100.000000,,,,,,,,,,,,,,,,,,,,,,,,,,,,,,,,,,,,,,,,,,,,,,,,,,,,,,,,,,,,,,,,,,,,,,,,,,,,,,,,,,,,,,
1676060969.968274,1676060969.969210,8.000000,0.000000,4272.820313,4274.487305,4298.333496,4293.717773,4284.358887,4272.051270,4289.230957,4302.692383,4275.641113,4268.846191,4451.922852,4488.846191,4341.794922,4409.102539,2264.000000,4.000000,83.000000,,,,0.000000,4.000000,4.000000,4.000000,4.000000,4.000000,4.000000,4.000000,4.000000,4.000000,4.000000,4.000000,4.000000,4.000000,4.000000,100.000000,,,,,,,,,,,,,,,,,,,,,,,,,,,,,,,,,,,,,,,,,,,,,,,,,,,,,,,,,,,,,,,,,,,,,,,,,,,,,,,,,,,,,,
1676060969.976083,1676060969.976919,9.000000,0.000000,4280.641113,4286.538574,4301.922852,4299.358887,4277.692383,4262.051270,4281.666504,4300.256348,4272.179688,4250.000000,4446.922852,4485.000000,4338.205078,4406.025879,2516.000000,4.000000,83.000000,,,,0.000000,4.000000,4.000000,4.000000,4.000000,4.000000,4.000000,4.000000,4.000000,4.000000,4.000000,4.000000,4.000000,4.000000,4.000000,100.000000,,,,,,,,,,,,,,,,,,,,,,,,,,,,,,,,,,,,,,,,,,,,,,,,,,,,,,,,,,,,,,,,,,,,,,,,,,,,,,,,,,,,,,
1676060969.983891,1676060969.984727,10.000000,0.000000,4298.589844,4294.487305,4321.282227,4310.384766,4283.974121,4265.384766,4295.384766,4306.538574,4278.717773,4261.410156,4467.563965,4503.205078,4367.820313,4423.846191,2697.000000,4.000000,83.000000,,,,0.000000,4.000000,4.000000,4.000000,4.000000,4.000000,4.000000,4.000000,4.000000,4.000000,4.000000,4.000000,4.000000,4.000000,4.000000,100.000000,,,,,,,,,,,,,,,,,,,,,,,,,,,,,,,,,,,,,,,,,,,,,,,,,,,,,,,,,,,,,,,,,,,,,,,,,,,,,,,,,,,,,,
1676060969.991699,1676060969.992436,11.000000,0.000000,4302.051270,4295.641113,4330.641113,4312.436035,4297.820313,4271.794922,4299.102539,4301.666504,4282.563965,4273.461426,4479.871582,4513.717773,4372.051270,4435.384766,2653.000000,4.000000,83.000000,,,,0.000000,4.000000,4.000000,4.000000,4.000000,4.000000,4.000000,4.000000,4.000000,4.000000,4.000000,4.000000,4.000000,4.000000,4.000000,100.000000,,,,,,,,,,,,,,,,,,,,,,,,,,,,,,,,,,,,,,,,,,,,,,,,,,,,,,,,,,,,,,,,,,,,,,,,,,,,,,,,,,,,,,
1676060969.999508,1676060970.000244,12.000000,0.000000,4296.153809,4296.794922,4320.384766,4310.000000,4297.948730,4270.000000,4288.846191,4291.282227,4279.102539,4271.153809,4469.102539,4503.846191,4355.000000,4430.641113,2999.000000,4.000000,83.000000,,,,0.000000,4.000000,4.000000,4.000000,4.000000,4.000000,4.000000,4.000000,4.000000,4.000000,4.000000,4.000000,4.000000,4.000000,4.000000,100.000000,,,,,,,,,,,,,,,,,,,,,,,,,,,,,,,,,,,,,,,,,,,,,,,,,,,,,,,,,,,,,,,,,,,,,,,,,,,,,,,,,,,,,,
1676060970.007316,1676060970.007953,13.000000,0.000000,4303.333496,4299.871582,4320.897461,4313.717773,4283.717773,4273.205078,4290.897461,4297.820313,4280.384766,4278.717773,4472.948730,4508.717773,4368.589844,4433.589844,3289.000000,4.000000,83.000000,,,,0.000000,4.000000,4.000000,4.000000,4.000000,4.000000,4.000000,4.000000,4.000000,4.000000,4.000000,4.000000,4.000000,4.000000,4.000000,100.000000,,,,,,,,,,,,,,,,,,,,,,,,,,,,,,,,,,,,,,,,,,,,,,,,,,,,,,,,,,,,,,,,,,,,,,,,,,,,,,,,,,,,,,
1676060970.015125,1676060970.015761,14.000000,0.000000,4315.384766,4300.641113,4332.307617,4318.846191,4290.769043,4281.025879,4299.487305,4307.563965,4284.102539,4285.256348,4486.922852,4527.051270,4386.282227,4445.128418,2697.000000,4.000000,83.000000,,,,0.000000,4.000000,4.000000,4.000000,4.000000,4.000000,4.000000,4.000000,4.000000,4.000000,4.000000,4.000000,4.000000,4.000000,4.000000,100.000000,1.000000,75.000000,4.000000,4.000000,4.000000,4.000000,4.000000,4.000000,4.000000,4.000000,4.000000,1.000000,4.000000,4.000000,4.000000,4.000000,1.768375,1.682552,0.448289,0.210346,0.188441,0.956392,1.075767,0.288173,0.301663,0.284124,1.671932,2.142832,0.487793,0.317747,0.292224,0.900632,1.408916,0.265688,0.245908,0.176483,0.449876,0.597384,0.159063,0.379351,0.448188,1.165109,0.520372,0.694179,0.225118,0.148390,0.564675,1.124511,0.425570,0.448455,0.291904,0.156059,0.522940,0.218885,0.289286,0.143196,0.559104,1.191321,0.451057,0.400528,0.224984,0.470881,0.587276,0.410150,1.062083,0.690228,0.986668,1.170795,0.647254,0.457944,0.368934,1.808393,1.371735,1.324558,0.473272,0.325505,0.852358,1.066540,0.647410,0.379909,0.368838,2.082896,1.479137,1.010067,0.307581,0.359129
1676060970.022933,1676060970.023470,15.000000,0.000000,4307.563965,4294.743652,4324.487305,4313.846191,4307.820313,4279.230957,4290.897461,4301.666504,4279.487305,4275.769043,4482.307617,4518.589844,4372.820313,4441.922852,2653.000000,4.000000,83.000000,,,,0.000000,4.000000,4.000000,4.000000,4.000000,4.000000,4.000000,4.000000,4.000000,4.000000,4.000000,4.000000,4.000000,4.000000,4.000000,100.000000,,,,,,,,,,,,,,,,,,,,,,,,,,,,,,,,,,,,,,,,,,,,,,,,,,,,,,,,,,,,,,,,,,,,,,,,,,,,,,,,,,,,,,
1676060970.030741,1676060970.031278,16.000000,0.000000,4293.077148,4289.743652,4313.077148,4306.153809,4300.512695,4279.743652,4287.179688,4300.769043,4275.641113,4274.871582,4472.820313,4502.820313,4358.333496,4429.615234,0.000000,4.000000,83.000000,,,,0.000000,4.000000,4.000000,4.000000,4.000000,4.000000,4.000000,4.000000,4.000000,4.000000,4.000000,4.000000,4.000000,4.000000,4.000000,100.000000,,,,,,,,,,,,,,,,,,,,,,,,,,,,,,,,,,,,,,,,,,,,,,,,,,,,,,,,,,,,,,,,,,,,,,,,,,,,,,,,,,,,,,
1676060970.038550,1676060970.038987,17.000000,0.000000,4293.461426,4296.666504,4319.743652,4313.333496,4292.436035,4291.282227,4304.102539,4312.692383,4281.794922,4277.436035,4473.589844,4514.871582,4365.384766,4426.538574,0.000000,4.000000,83.000000,,,,0.000000,4.000000,4.000000,4.000000,4.000000,4.000000,4.000000,4.000000,4.000000,4.000000,4.000000,4.000000,4.000000,4.000000,4.000000,100.000000,,,,,,,,,,,,,,,,,,,,,,,,,,,,,,,,,,,,,,,,,,,,,,,,,,,,,,,,,,,,,,,,,,,,,,,,,,,,,,,,,,,,,,
1676060970.046358,1676060970.046895,18.000000,0.000000,4304.102539,4307.692383,4331.666504,4319.102539,4304.743652,4296.538574,4316.025879,4317.948730,4293.205078,4271.410156,4482.436035,4525.641113,4381.666504,4435.769043,0.000000,4.000000,83.000000,,,,0.000000,4.000000,4.000000,4.000000,4.000000,4.000000,4.000000,4.000000,4.000000,4.000000,4.000000,4.000000,4.000000,4.000000,4.000000,100.000000,,,,,,,,,,,,,,,,,,,,,,,,,,,,,,,,,,,,,,,,,,,,,,,,,,,,,,,,,,,,,,,,,,,,,,,,,,,,,,,,,,,,,,
1676060970.054167,1676060970.054704,19.000000,0.000000,4298.589844,4300.769043,4324.743652,4311.282227,4308.077148,4290.128418,4309.230957,4309.871582,4294.743652,4279.230957,4482.948730,4511.922852,4376.666504,4432.179688,0.000000,4.000000,83.000000,,,,0.000000,4.000000,4.000000,4.000000,4.000000,4.000000,4.000000,4.000000,4.000000,4.000000,4.000000,4.000000,4.000000,4.000000,4.000000,100.000000,,,,,,,,,,,,,,,,,,,,,,,,,,,,,,,,,,,,,,,,,,,,,,,,,,,,,,,,,,,,,,,,,,,,,,,,,,,,,,,,,,,,,,
1676060970.061975,1676060970.062612,20.000000,0.000000,4282.051270,4293.589844,4311.922852,4307.948730,4297.563965,4286.282227,4308.717773,4309.358887,4284.871582,4288.846191,4469.487305,4500.641113,4360.128418,4419.871582,0.000000,4.000000,83.000000,,,,0.000000,4.000000,4.000000,4.000000,4.000000,4.000000,4.000000,4.000000,4.000000,4.000000,4.000000,4.000000,4.000000,4.000000,4.000000,100.000000,,,,,,,,,,,,,,,,,,,,,,,,,,,,,,,,,,,,,,,,,,,,,,,,,,,,,,,,,,,,,,,,,,,,,,,,,,,,,,,,,,,,,,
1676060970.069783,1676060970.070421,21.000000,0.000000,4277.820313,4295.641113,4309.358887,4305.128418,4295.897461,4283.846191,4315.769043,4310.769043,4280.000000,4281.794922,4462.051270,4497.563965,4357.563965,4418.846191,0.000000,4.000000,83.000000,,,,0.000000,4.000000,4.000000,4.000000,4.000000,4.000000,4.000000,4.000000,4.000000,4.000000,4.000000,4.000000,4.000000,4.000000,4.000000,100.000000,,,,,,,,,,,,,,,,,,,,,,,,,,,,,,,,,,,,,,,,,,,,,,,,,,,,,,,,,,,,,,,,,,,,,,,,,,,,,,,,,,,,,,
1676060970.077592,1676060970.078329,22.000000,0.000000,4277.948730,4284.871582,4306.794922,4294.743652,4293.974121,4280.000000,4307.307617,4300.000000,4282.692383,4274.743652,4457.948730,4487.563965,4353.205078,4415.000000,0.000000,4.000000,83.000000,,,,0.000000,4.000000,4.000000,4.000000,4.000000,4.000000,4.000000,4.000000,4.000000,4.000000,4.000000,4.000000,4.000000,4.000000,4.000000,100.000000,,,,,,,,,,,,,,,,,,,,,,,,,,,,,,,,,,,,,,,,,,,,,,,,,,,,,,,,,,,,,,,,,,,,,,,,,,,,,,,,,,,,,,
