title:Psychopy_Rahul_1_2023-02-17T115241.239336, start timestamp:1676663562.560367, stop timestamp:1676663623.574877, headset type:EPOCX, headset serial:E2020A42, headset firmware:720, channels:125, sampling rate:eeg_128;pow_8, samples:7815      , version:2.1, 
Timestamp,OriginalTimestamp,EEG.Counter,EEG.Interpolated,EEG.AF3,EEG.F7,EEG.F3,EEG.FC5,EEG.T7,EEG.P7,EEG.O1,EEG.O2,EEG.P8,EEG.T8,EEG.FC6,EEG.F4,EEG.F8,EEG.AF4,EEG.RawCq,EEG.Battery,EEG.BatteryPercent,MarkerIndex,MarkerType,MarkerValueInt,EEG.MarkerHardware,CQ.AF3,CQ.F7,CQ.F3,CQ.FC5,CQ.T7,CQ.P7,CQ.O1,CQ.O2,CQ.P8,CQ.T8,CQ.FC6,CQ.F4,CQ.F8,CQ.AF4,CQ.Overall,EQ.SampleRateQuality,EQ.OVERALL,EQ.AF3,EQ.F7,EQ.F3,EQ.FC5,EQ.T7,EQ.P7,EQ.O1,EQ.O2,EQ.P8,EQ.T8,EQ.FC6,EQ.F4,EQ.F8,EQ.AF4,POW.AF3.Theta,POW.AF3.Alpha,POW.AF3.BetaL,POW.AF3.BetaH,POW.AF3.Gamma,POW.F7.Theta,POW.F7.Alpha,POW.F7.BetaL,POW.F7.BetaH,POW.F7.Gamma,POW.F3.Theta,POW.F3.Alpha,POW.F3.BetaL,POW.F3.BetaH,POW.F3.Gamma,POW.FC5.Theta,POW.FC5.Alpha,POW.FC5.BetaL,POW.FC5.BetaH,POW.FC5.Gamma,POW.T7.Theta,POW.T7.Alpha,POW.T7.BetaL,POW.T7.BetaH,POW.T7.Gamma,POW.P7.Theta,POW.P7.Alpha,POW.P7.BetaL,POW.P7.BetaH,POW.P7.Gamma,POW.O1.Theta,POW.O1.Alpha,POW.O1.BetaL,POW.O1.BetaH,POW.O1.Gamma,POW.O2.Theta,POW.O2.Alpha,POW.O2.BetaL,POW.O2.BetaH,POW.O2.Gamma,POW.P8.Theta,POW.P8.Alpha,POW.P8.BetaL,POW.P8.BetaH,POW.P8.Gamma,POW.T8.Theta,POW.T8.Alpha,POW.T8.BetaL,POW.T8.BetaH,POW.T8.Gamma,POW.FC6.Theta,POW.FC6.Alpha,POW.FC6.BetaL,POW.FC6.BetaH,POW.FC6.Gamma,POW.F4.Theta,POW.F4.Alpha,POW.F4.BetaL,POW.F4.BetaH,POW.F4.Gamma,POW.F8.Theta,POW.F8.Alpha,POW.F8.BetaL,POW.F8.BetaH,POW.F8.Gamma,POW.AF4.Theta,POW.AF4.Alpha,POW.AF4.BetaL,POW.AF4.BetaH,POW.AF4.Gamma
1676663562.560367,1676663562.560674,103.000000,0.000000,4249.487305,4220.769043,4282.436035,4278.205078,4274.487305,4256.025879,4279.358887,4301.666504,4268.717773,4302.307617,4442.307617,4461.666504,4368.461426,4394.871582,2508.000000,4.000000,79.000000,,,,0.000000,4.000000,4.000000,4.000000,4.000000,4.000000,4.000000,4.000000,4.000000,4.000000,4.000000,4.000000,4.000000,4.000000,4.000000,100.000000,,,,,,,,,,,,,,,,,,,,,,,,,,,,,,,,,,,,,,,,,,,,,,,,,,,,,,,,,,,,,,,,,,,,,,,,,,,,,,,,,,,,,,
1676663562.568175,1676663562.568583,104.000000,0.000000,4245.769043,4218.589844,4277.948730,4257.179688,4260.641113,4250.769043,4279.743652,4294.358887,4258.974121,4301.153809,4447.179688,4459.743652,4359.615234,4389.743652,2324.000000,4.000000,79.000000,,,,0.000000,4.000000,4.000000,4.000000,4.000000,4.000000,4.000000,4.000000,4.000000,4.000000,4.000000,4.000000,4.000000,4.000000,4.000000,100.000000,,,,,,,,,,,,,,,,,,,,,,,,,,,,,,,,,,,,,,,,,,,,,,,,,,,,,,,,,,,,,,,,,,,,,,,,,,,,,,,,,,,,,,
1676663562.575983,1676663562.576391,105.000000,0.000000,4248.717773,4218.077148,4267.436035,4269.102539,4269.487305,4246.025879,4277.820313,4290.384766,4240.641113,4294.487305,4429.487305,4456.538574,4357.307617,4386.282227,2511.000000,4.000000,79.000000,,,,0.000000,4.000000,4.000000,4.000000,4.000000,4.000000,4.000000,4.000000,4.000000,4.000000,4.000000,4.000000,4.000000,4.000000,4.000000,100.000000,,,,,,,,,,,,,,,,,,,,,,,,,,,,,,,,,,,,,,,,,,,,,,,,,,,,,,,,,,,,,,,,,,,,,,,,,,,,,,,,,,,,,,
1676663562.583792,1676663562.584200,106.000000,0.000000,4262.820313,4217.179688,4283.333496,4278.589844,4280.256348,4251.282227,4278.974121,4299.615234,4248.461426,4299.743652,4455.128418,4464.230957,4379.871582,4402.307617,2374.000000,4.000000,79.000000,,,,0.000000,4.000000,4.000000,4.000000,4.000000,4.000000,4.000000,4.000000,4.000000,4.000000,4.000000,4.000000,4.000000,4.000000,4.000000,100.000000,,,,,,,,,,,,,,,,,,,,,,,,,,,,,,,,,,,,,,,,,,,,,,,,,,,,,,,,,,,,,,,,,,,,,,,,,,,,,,,,,,,,,,
1676663562.591600,1676663562.591908,107.000000,0.000000,4273.205078,4221.922852,4305.384766,4262.179688,4260.000000,4263.974121,4296.025879,4312.948730,4279.230957,4322.307617,4468.333496,4485.641113,4378.077148,4416.666504,2508.000000,4.000000,79.000000,,,,0.000000,4.000000,4.000000,4.000000,4.000000,4.000000,4.000000,4.000000,4.000000,4.000000,4.000000,4.000000,4.000000,4.000000,4.000000,100.000000,,,,,,,,,,,,,,,,,,,,,,,,,,,,,,,,,,,,,,,,,,,,,,,,,,,,,,,,,,,,,,,,,,,,,,,,,,,,,,,,,,,,,,
1676663562.599409,1676663562.599716,108.000000,0.000000,4272.436035,4238.589844,4306.922852,4282.820313,4234.487305,4262.051270,4297.563965,4308.589844,4275.641113,4319.743652,4430.512695,4496.538574,4361.025879,4415.769043,2324.000000,4.000000,79.000000,,,,0.000000,4.000000,4.000000,4.000000,4.000000,4.000000,4.000000,4.000000,4.000000,4.000000,4.000000,4.000000,4.000000,4.000000,4.000000,100.000000,,,,,,,,,,,,,,,,,,,,,,,,,,,,,,,,,,,,,,,,,,,,,,,,,,,,,,,,,,,,,,,,,,,,,,,,,,,,,,,,,,,,,,
1676663562.607217,1676663562.607425,109.000000,0.000000,4266.538574,4219.102539,4288.461426,4284.871582,4259.230957,4241.538574,4267.948730,4292.307617,4241.794922,4303.461426,4435.512695,4468.333496,4367.436035,4401.666504,2511.000000,4.000000,79.000000,,,,0.000000,4.000000,4.000000,4.000000,4.000000,4.000000,4.000000,4.000000,4.000000,4.000000,4.000000,4.000000,4.000000,4.000000,4.000000,100.000000,,,,,,,,,,,,,,,,,,,,,,,,,,,,,,,,,,,,,,,,,,,,,,,,,,,,,,,,,,,,,,,,,,,,,,,,,,,,,,,,,,,,,,
1676663562.615025,1676663562.615233,110.000000,0.000000,4271.410156,4189.358887,4288.205078,4254.615234,4291.282227,4238.846191,4265.000000,4298.077148,4250.256348,4309.487305,4471.794922,4461.282227,4386.794922,4403.461426,2374.000000,4.000000,79.000000,,,,0.000000,4.000000,4.000000,4.000000,4.000000,4.000000,4.000000,4.000000,4.000000,4.000000,4.000000,4.000000,4.000000,4.000000,4.000000,100.000000,,,,,,,,,,,,,,,,,,,,,,,,,,,,,,,,,,,,,,,,,,,,,,,,,,,,,,,,,,,,,,,,,,,,,,,,,,,,,,,,,,,,,,
1676663562.622834,1676663562.622941,111.000000,0.000000,4281.025879,4226.282227,4314.230957,4271.922852,4273.589844,4258.333496,4292.820313,4310.128418,4278.205078,4315.128418,4446.794922,4494.358887,4377.692383,4423.077148,2508.000000,4.000000,79.000000,,,,0.000000,4.000000,4.000000,4.000000,4.000000,4.000000,4.000000,4.000000,4.000000,4.000000,4.000000,4.000000,4.000000,4.000000,4.000000,100.000000,,,,,,,,,,,,,,,,,,,,,,,,,,,,,,,,,,,,,,,,,,,,,,,,,,,,,,,,,,,,,,,,,,,,,,,,,,,,,,,,,,,,,,
1676663562.630642,1676663562.630749,112.000000,0.000000,4278.077148,4241.538574,4310.256348,4279.102539,4257.692383,4263.205078,4292.307617,4296.922852,4261.025879,4314.230957,4418.077148,4482.563965,4369.358887,4413.717773,2324.000000,4.000000,79.000000,,,,0.000000,4.000000,4.000000,4.000000,4.000000,4.000000,4.000000,4.000000,4.000000,4.000000,4.000000,4.000000,4.000000,4.000000,4.000000,100.000000,,,,,,,,,,,,,,,,,,,,,,,,,,,,,,,,,,,,,,,,,,,,,,,,,,,,,,,,,,,,,,,,,,,,,,,,,,,,,,,,,,,,,,
1676663562.638450,1676663562.638458,113.000000,0.000000,4275.641113,4193.589844,4281.282227,4248.717773,4279.102539,4257.179688,4282.563965,4292.820313,4242.948730,4316.282227,4433.461426,4452.692383,4377.563965,4394.230957,2511.000000,4.000000,79.000000,,,,0.000000,4.000000,4.000000,4.000000,4.000000,4.000000,4.000000,4.000000,4.000000,4.000000,4.000000,4.000000,4.000000,4.000000,4.000000,100.000000,,,,,,,,,,,,,,,,,,,,,,,,,,,,,,,,,,,,,,,,,,,,,,,,,,,,,,,,,,,,,,,,,,,,,,,,,,,,,,,,,,,,,,
1676663562.646259,1676663562.646266,114.000000,0.000000,4284.615234,4204.102539,4284.743652,4248.461426,4287.948730,4260.769043,4296.794922,4308.589844,4265.256348,4313.461426,4416.025879,4471.922852,4375.769043,4401.025879,2374.000000,4.000000,79.000000,,,,0.000000,4.000000,4.000000,4.000000,4.000000,4.000000,4.000000,4.000000,4.000000,4.000000,4.000000,4.000000,4.000000,4.000000,4.000000,100.000000,,,,,,,,,,,,,,,,,,,,,,,,,,,,,,,,,,,,,,,,,,,,,,,,,,,,,,,,,,,,,,,,,,,,,,,,,,,,,,,,,,,,,,
1676663562.654067,1676663562.653974,115.000000,0.000000,4300.128418,4259.743652,4305.897461,4274.871582,4276.538574,4265.769043,4305.897461,4309.487305,4273.846191,4316.794922,4407.051270,4493.974121,4390.769043,4418.205078,2508.000000,4.000000,79.000000,,,,0.000000,4.000000,4.000000,4.000000,4.000000,4.000000,4.000000,4.000000,4.000000,4.000000,4.000000,4.000000,4.000000,4.000000,4.000000,100.000000,,,,,,,,,,,,,,,,,,,,,,,,,,,,,,,,,,,,,,,,,,,,,,,,,,,,,,,,,,,,,,,,,,,,,,,,,,,,,,,,,,,,,,
1676663562.661875,1676663562.661882,116.000000,0.000000,4311.794922,4255.384766,4298.717773,4279.615234,4278.717773,4260.384766,4298.333496,4302.179688,4253.717773,4331.666504,4433.589844,4482.948730,4397.563965,4422.051270,2324.000000,4.000000,79.000000,,,,0.000000,4.000000,4.000000,4.000000,4.000000,4.000000,4.000000,4.000000,4.000000,4.000000,4.000000,4.000000,4.000000,4.000000,4.000000,100.000000,,,,,,,,,,,,,,,,,,,,,,,,,,,,,,,,,,,,,,,,,,,,,,,,,,,,,,,,,,,,,,,,,,,,,,,,,,,,,,,,,,,,,,
1676663562.669684,1676663562.669691,117.000000,0.000000,4313.333496,4232.436035,4279.358887,4280.897461,4284.871582,4249.871582,4290.512695,4302.692383,4245.641113,4327.692383,4395.769043,4473.333496,4365.256348,4411.794922,2511.000000,4.000000,79.000000,,,,0.000000,4.000000,4.000000,4.000000,4.000000,4.000000,4.000000,4.000000,4.000000,4.000000,4.000000,4.000000,4.000000,4.000000,4.000000,100.000000,,,,,,,,,,,,,,,,,143.277390,26.636797,5.837461,0.567855,0.588830,2.124649,0.614828,0.875493,0.470051,0.365508,1.640698,0.855762,1.100851,0.505167,0.444304,5.188269,1.080168,0.747145,1.119760,1.321332,0.571523,0.460114,0.141654,0.149538,0.090899,5.659524,2.067975,0.312403,0.304495,0.133593,59.905094,11.812712,3.109941,0.395787,0.196172,26.345831,7.737973,1.969875,0.287503,0.222230,3.367610,1.065241,0.995641,0.623328,0.170095,3.538596,1.143097,1.234754,0.423740,0.601396,1.342702,1.654796,0.877872,1.749839,1.843891,12.120669,4.351434,2.316206,0.367830,0.388037,1.051328,0.954424,0.721257,0.549255,1.063653,6.747935,2.461337,1.487650,0.401540,0.537989
1676663562.677492,1676663562.677599,118.000000,0.000000,4322.179688,4251.410156,4280.512695,4290.128418,4276.410156,4247.051270,4292.436035,4302.051270,4249.102539,4316.410156,4371.153809,4476.922852,4363.333496,4409.871582,2374.000000,4.000000,79.000000,,,,0.000000,4.000000,4.000000,4.000000,4.000000,4.000000,4.000000,4.000000,4.000000,4.000000,4.000000,4.000000,4.000000,4.000000,4.000000,100.000000,,,,,,,,,,,,,,,,,,,,,,,,,,,,,,,,,,,,,,,,,,,,,,,,,,,,,,,,,,,,,,,,,,,,,,,,,,,,,,,,,,,,,,
1676663562.685300,1676663562.685407,119.000000,0.000000,4332.051270,4272.820313,4286.922852,4302.179688,4273.077148,4251.025879,4295.384766,4301.282227,4247.820313,4338.717773,4425.384766,4474.487305,4409.358887,4419.743652,2508.000000,4.000000,79.000000,,,,0.000000,4.000000,4.000000,4.000000,4.000000,4.000000,4.000000,4.000000,4.000000,4.000000,4.000000,4.000000,4.000000,4.000000,4.000000,100.000000,,,,,,,,,,,,,,,,,,,,,,,,,,,,,,,,,,,,,,,,,,,,,,,,,,,,,,,,,,,,,,,,,,,,,,,,,,,,,,,,,,,,,,
1676663562.693109,1676663562.693315,120.000000,0.000000,4314.615234,4273.077148,4282.307617,4307.307617,4288.461426,4249.102539,4285.384766,4300.769043,4245.000000,4349.230957,4427.563965,4467.948730,4405.384766,4414.871582,2324.000000,4.000000,79.000000,,,,0.000000,4.000000,4.000000,4.000000,4.000000,4.000000,4.000000,4.000000,4.000000,4.000000,4.000000,4.000000,4.000000,4.000000,4.000000,100.000000,,,,,,,,,,,,,,,,,,,,,,,,,,,,,,,,,,,,,,,,,,,,,,,,,,,,,,,,,,,,,,,,,,,,,,,,,,,,,,,,,,,,,,
1676663562.700917,1676663562.701124,121.000000,0.000000,4286.282227,4258.077148,4277.692383,4271.922852,4298.589844,4246.282227,4280.000000,4298.333496,4246.410156,4323.205078,4375.128418,4463.461426,4368.205078,4394.615234,2511.000000,4.000000,79.000000,,,,0.000000,4.000000,4.000000,4.000000,4.000000,4.000000,4.000000,4.000000,4.000000,4.000000,4.000000,4.000000,4.000000,4.000000,4.000000,100.000000,,,,,,,,,,,,,,,,,,,,,,,,,,,,,,,,,,,,,,,,,,,,,,,,,,,,,,,,,,,,,,,,,,,,,,,,,,,,,,,,,,,,,,
1676663562.708726,1676663562.709032,122.000000,0.000000,4282.051270,4263.589844,4277.307617,4286.666504,4291.922852,4256.922852,4292.179688,4298.717773,4250.128418,4328.461426,4395.769043,4464.871582,4390.384766,4397.179688,2374.000000,4.000000,79.000000,,,,0.000000,4.000000,4.000000,4.000000,4.000000,4.000000,4.000000,4.000000,4.000000,4.000000,4.000000,4.000000,4.000000,4.000000,4.000000,100.000000,,,,,,,,,,,,,,,,,,,,,,,,,,,,,,,,,,,,,,,,,,,,,,,,,,,,,,,,,,,,,,,,,,,,,,,,,,,,,,,,,,,,,,
1676663562.716534,1676663562.716840,123.000000,0.000000,4293.333496,4295.256348,4283.077148,4330.256348,4293.589844,4261.153809,4292.179688,4299.615234,4250.000000,4349.615234,4430.128418,4475.512695,4413.461426,4419.102539,2508.000000,4.000000,79.000000,,,,0.000000,4.000000,4.000000,4.000000,4.000000,4.000000,4.000000,4.000000,4.000000,4.000000,4.000000,4.000000,4.000000,4.000000,4.000000,100.000000,,,,,,,,,,,,,,,,,,,,,,,,,,,,,,,,,,,,,,,,,,,,,,,,,,,,,,,,,,,,,,,,,,,,,,,,,,,,,,,,,,,,,,
1676663562.724342,1676663562.724748,124.000000,0.000000,4289.615234,4287.307617,4291.538574,4291.153809,4297.051270,4247.948730,4279.230957,4295.641113,4248.205078,4333.333496,4402.692383,4479.487305,4400.769043,4416.282227,2324.000000,4.000000,79.000000,,,,0.000000,4.000000,4.000000,4.000000,4.000000,4.000000,4.000000,4.000000,4.000000,4.000000,4.000000,4.000000,4.000000,4.000000,4.000000,100.000000,,,,,,,,,,,,,,,,,,,,,,,,,,,,,,,,,,,,,,,,,,,,,,,,,,,,,,,,,,,,,,,,,,,,,,,,,,,,,,,,,,,,,,
1676663562.732151,1676663562.732556,125.000000,0.000000,4269.487305,4266.922852,4289.615234,4271.794922,4292.051270,4243.589844,4277.179688,4290.128418,4247.436035,4322.307617,4397.051270,4464.615234,4394.487305,4398.717773,2511.000000,4.000000,79.000000,,,,0.000000,4.000000,4.000000,4.000000,4.000000,4.000000,4.000000,4.000000,4.000000,4.000000,4.000000,4.000000,4.000000,4.000000,4.000000,100.000000,,,,,,,,,,,,,,,,,,,,,,,,,,,,,,,,,,,,,,,,,,,,,,,,,,,,,,,,,,,,,,,,,,,,,,,,,,,,,,,,,,,,,,
1676663562.739959,1676663562.740264,126.000000,0.000000,4252.307617,4278.077148,4276.153809,4317.051270,4291.153809,4250.512695,4272.051270,4282.307617,4248.077148,4345.512695,4419.358887,4448.846191,4394.230957,4395.897461,2374.000000,4.000000,79.000000,,,,0.000000,4.000000,4.000000,4.000000,4.000000,4.000000,4.000000,4.000000,4.000000,4.000000,4.000000,4.000000,4.000000,4.000000,4.000000,100.000000,,,,,,,,,,,,,,,,,,,,,,,,,,,,,,,,,,,,,,,,,,,,,,,,,,,,,,,,,,,,,,,,,,,,,,,,,,,,,,,,,,,,,,
1676663562.747767,1676663562.748073,127.000000,0.000000,4235.128418,4281.794922,4270.769043,4301.538574,4297.436035,4249.871582,4260.384766,4279.230957,4248.717773,4336.153809,4408.077148,4448.461426,4388.717773,4392.692383,79.000000,4.000000,79.000000,,,,0.000000,4.000000,4.000000,4.000000,4.000000,4.000000,4.000000,4.000000,4.000000,4.000000,4.000000,4.000000,4.000000,4.000000,4.000000,100.000000,,,,,,,,,,,,,,,,,,,,,,,,,,,,,,,,,,,,,,,,,,,,,,,,,,,,,,,,,,,,,,,,,,,,,,,,,,,,,,,,,,,,,,
1676663562.755576,1676663562.755781,0.000000,0.000000,4207.948730,4262.051270,4274.615234,4239.230957,4296.538574,4247.692383,4261.410156,4284.102539,4248.717773,4307.692383,4373.461426,4446.794922,4384.487305,4370.897461,2403.000000,4.000000,79.000000,,,,0.000000,4.000000,4.000000,4.000000,4.000000,4.000000,4.000000,4.000000,4.000000,4.000000,4.000000,4.000000,4.000000,4.000000,4.000000,100.000000,,,,,,,,,,,,,,,,,,,,,,,,,,,,,,,,,,,,,,,,,,,,,,,,,,,,,,,,,,,,,,,,,,,,,,,,,,,,,,,,,,,,,,
1676663562.763384,1676663562.763589,1.000000,0.000000,4194.230957,4266.410156,4275.641113,4250.000000,4292.948730,4251.025879,4261.153809,4281.153809,4251.666504,4318.717773,4379.102539,4441.538574,4380.128418,4365.128418,2202.000000,4.000000,79.000000,,,,0.000000,4.000000,4.000000,4.000000,4.000000,4.000000,4.000000,4.000000,4.000000,4.000000,4.000000,4.000000,4.000000,4.000000,4.000000,100.000000,,,,,,,,,,,,,,,,,,,,,,,,,,,,,,,,,,,,,,,,,,,,,,,,,,,,,,,,,,,,,,,,,,,,,,,,,,,,,,,,,,,,,,
1676663562.771192,1676663562.771298,2.000000,0.000000,4193.461426,4293.717773,4262.820313,4308.333496,4299.743652,4250.769043,4248.717773,4268.077148,4245.512695,4332.692383,4387.179688,4435.641113,4382.051270,4376.538574,1763.000000,4.000000,79.000000,,,,0.000000,4.000000,4.000000,4.000000,4.000000,4.000000,4.000000,4.000000,4.000000,4.000000,4.000000,4.000000,4.000000,4.000000,4.000000,100.000000,,,,,,,,,,,,,,,,,,,,,,,,,,,,,,,,,,,,,,,,,,,,,,,,,,,,,,,,,,,,,,,,,,,,,,,,,,,,,,,,,,,,,,
1676663562.779001,1676663562.779106,3.000000,0.000000,4181.538574,4287.436035,4255.512695,4288.461426,4302.563965,4245.256348,4242.307617,4265.000000,4230.128418,4311.538574,4348.974121,4427.820313,4377.820313,4373.077148,2229.000000,4.000000,79.000000,,,,0.000000,4.000000,4.000000,4.000000,4.000000,4.000000,4.000000,4.000000,4.000000,4.000000,4.000000,4.000000,4.000000,4.000000,4.000000,100.000000,,,,,,,,,,,,,,,,,,,,,,,,,,,,,,,,,,,,,,,,,,,,,,,,,,,,,,,,,,,,,,,,,,,,,,,,,,,,,,,,,,,,,,
1676663562.786809,1676663562.786814,4.000000,0.000000,4177.692383,4271.538574,4271.538574,4240.769043,4295.897461,4245.769043,4249.102539,4277.179688,4237.948730,4302.948730,4344.230957,4434.102539,4365.769043,4370.769043,1796.000000,4.000000,79.000000,,,,0.000000,4.000000,4.000000,4.000000,4.000000,4.000000,4.000000,4.000000,4.000000,4.000000,4.000000,4.000000,4.000000,4.000000,4.000000,100.000000,,,,,,,,,,,,,,,,,,,,,,,,,,,,,,,,,,,,,,,,,,,,,,,,,,,,,,,,,,,,,,,,,,,,,,,,,,,,,,,,,,,,,,
1676663562.794618,1676663562.794622,5.000000,0.000000,4194.487305,4285.769043,4279.230957,4275.256348,4298.974121,4251.025879,4254.230957,4284.871582,4258.717773,4326.025879,4386.025879,4453.205078,4388.974121,4385.897461,2302.000000,4.000000,79.000000,,,,0.000000,4.000000,4.000000,4.000000,4.000000,4.000000,4.000000,4.000000,4.000000,4.000000,4.000000,4.000000,4.000000,4.000000,4.000000,100.000000,1.000000,58.333332,3.000000,4.000000,3.000000,3.000000,4.000000,3.000000,1.000000,3.000000,4.000000,4.000000,3.000000,4.000000,4.000000,4.000000,137.503052,26.130424,5.581557,0.455266,0.624603,2.166268,0.525736,0.911688,0.417967,0.429203,1.736736,0.810924,1.231940,0.498853,0.587057,5.154689,1.217433,0.712249,1.086097,1.389096,0.626934,0.572635,0.130994,0.151495,0.115971,6.938186,1.862443,0.311067,0.312847,0.144479,54.034000,11.430217,2.709151,0.366263,0.218857,23.486141,7.725176,1.988053,0.271990,0.222889,3.200025,1.132273,0.995342,0.715878,0.203232,3.291052,1.170120,1.295598,0.436693,0.657220,1.223183,1.809391,0.961056,1.917986,1.941697,11.156239,4.446849,2.303603,0.368870,0.499532,0.866798,0.985481,0.802765,0.624786,1.137917,6.242338,2.482283,1.608748,0.406257,0.696446
1676663562.802426,1676663562.802331,6.000000,0.000000,4196.794922,4294.871582,4261.666504,4309.615234,4303.205078,4241.282227,4248.333496,4275.128418,4248.974121,4326.666504,4383.205078,4444.102539,4405.512695,4379.230957,1955.000000,4.000000,79.000000,,,,0.000000,4.000000,4.000000,4.000000,4.000000,4.000000,4.000000,4.000000,4.000000,4.000000,4.000000,4.000000,4.000000,4.000000,4.000000,100.000000,,,,,,,,,,,,,,,,,,,,,,,,,,,,,,,,,,,,,,,,,,,,,,,,,,,,,,,,,,,,,,,,,,,,,,,,,,,,,,,,,,,,,,
1676663562.810234,1676663562.810139,7.000000,0.000000,4189.871582,4282.051270,4257.563965,4274.358887,4292.948730,4226.922852,4245.128418,4271.538574,4235.128418,4306.794922,4353.974121,4432.307617,4381.666504,4367.051270,1521.000000,4.000000,79.000000,,,,0.000000,4.000000,4.000000,4.000000,4.000000,4.000000,4.000000,4.000000,4.000000,4.000000,4.000000,4.000000,4.000000,4.000000,4.000000,100.000000,,,,,,,,,,,,,,,,,,,,,,,,,,,,,,,,,,,,,,,,,,,,,,,,,,,,,,,,,,,,,,,,,,,,,,,,,,,,,,,,,,,,,,
1676663562.818043,1676663562.817847,8.000000,0.000000,4197.179688,4274.230957,4272.179688,4253.974121,4287.563965,4227.948730,4248.333496,4276.538574,4246.025879,4307.307617,4366.666504,4452.307617,4366.794922,4383.974121,2371.000000,4.000000,79.000000,,,,0.000000,4.000000,4.000000,4.000000,4.000000,4.000000,4.000000,4.000000,4.000000,4.000000,4.000000,4.000000,4.000000,4.000000,4.000000,100.000000,,,,,,,,,,,,,,,,,,,,,,,,,,,,,,,,,,,,,,,,,,,,,,,,,,,,,,,,,,,,,,,,,,,,,,,,,,,,,,,,,,,,,,
1676663562.825851,1676663562.825655,9.000000,0.000000,4202.436035,4287.820313,4276.922852,4270.512695,4291.153809,4232.179688,4249.487305,4277.179688,4251.794922,4320.384766,4383.205078,4460.512695,4388.333496,4389.871582,2366.000000,4.000000,79.000000,,,,0.000000,4.000000,4.000000,4.000000,4.000000,4.000000,4.000000,4.000000,4.000000,4.000000,4.000000,4.000000,4.000000,4.000000,4.000000,100.000000,,,,,,,,,,,,,,,,,,,,,,,,,,,,,,,,,,,,,,,,,,,,,,,,,,,,,,,,,,,,,,,,,,,,,,,,,,,,,,,,,,,,,,
1676663562.833659,1676663562.833364,10.000000,0.000000,4195.128418,4288.589844,4280.512695,4282.051270,4275.128418,4231.153809,4249.615234,4277.307617,4246.282227,4308.077148,4370.641113,4446.666504,4401.282227,4375.128418,2363.000000,4.000000,79.000000,,,,0.000000,4.000000,4.000000,4.000000,4.000000,4.000000,4.000000,4.000000,4.000000,4.000000,4.000000,4.000000,4.000000,4.000000,4.000000,100.000000,,,,,,,,,,,,,,,,,,,,,,,,,,,,,,,,,,,,,,,,,,,,,,,,,,,,,,,,,,,,,,,,,,,,,,,,,,,,,,,,,,,,,,
1676663562.841468,1676663562.841272,11.000000,0.000000,4184.871582,4274.487305,4280.769043,4297.820313,4267.948730,4231.922852,4249.871582,4272.820313,4244.871582,4281.666504,4365.256348,4443.589844,4370.512695,4374.487305,2421.000000,4.000000,79.000000,,,,0.000000,4.000000,4.000000,4.000000,4.000000,4.000000,4.000000,4.000000,4.000000,4.000000,4.000000,4.000000,4.000000,4.000000,4.000000,100.000000,,,,,,,,,,,,,,,,,,,,,,,,,,,,,,,,,,,,,,,,,,,,,,,,,,,,,,,,,,,,,,,,,,,,,,,,,,,,,,,,,,,,,,
1676663562.849276,1676663562.849080,12.000000,0.000000,4183.589844,4266.794922,4268.205078,4272.820313,4287.820313,4232.563965,4248.589844,4264.743652,4242.179688,4281.666504,4368.077148,4441.282227,4352.307617,4375.128418,2269.000000,4.000000,79.000000,,,,0.000000,4.000000,4.000000,4.000000,4.000000,4.000000,4.000000,4.000000,4.000000,4.000000,4.000000,4.000000,4.000000,4.000000,4.000000,100.000000,,,,,,,,,,,,,,,,,,,,,,,,,,,,,,,,,,,,,,,,,,,,,,,,,,,,,,,,,,,,,,,,,,,,,,,,,,,,,,,,,,,,,,
1676663562.857084,1676663562.856988,13.000000,0.000000,4193.717773,4277.820313,4270.769043,4239.102539,4296.538574,4232.436035,4248.461426,4267.307617,4240.897461,4293.589844,4373.461426,4435.769043,4380.128418,4370.769043,2463.000000,4.000000,79.000000,,,,0.000000,4.000000,4.000000,4.000000,4.000000,4.000000,4.000000,4.000000,4.000000,4.000000,4.000000,4.000000,4.000000,4.000000,4.000000,100.000000,,,,,,,,,,,,,,,,,,,,,,,,,,,,,,,,,,,,,,,,,,,,,,,,,,,,,,,,,,,,,,,,,,,,,,,,,,,,,,,,,,,,,,
1676663562.864893,1676663562.864797,14.000000,0.000000,4198.974121,4290.512695,4278.717773,4277.948730,4291.666504,4234.487305,4248.589844,4277.051270,4245.769043,4295.256348,4383.077148,4440.256348,4399.102539,4373.205078,2363.000000,4.000000,79.000000,,,,0.000000,4.000000,4.000000,4.000000,4.000000,4.000000,4.000000,4.000000,4.000000,4.000000,4.000000,4.000000,4.000000,4.000000,4.000000,100.000000,,,,,,,,,,,,,,,,,,,,,,,,,,,,,,,,,,,,,,,,,,,,,,,,,,,,,,,,,,,,,,,,,,,,,,,,,,,,,,,,,,,,,,
1676663562.872701,1676663562.872705,15.000000,0.000000,4200.641113,4293.461426,4273.077148,4308.589844,4292.563965,4233.717773,4252.948730,4277.820313,4249.871582,4284.743652,4368.846191,4449.102539,4383.974121,4378.589844,2421.000000,4.000000,79.000000,,,,0.000000,4.000000,4.000000,4.000000,4.000000,4.000000,4.000000,4.000000,4.000000,4.000000,4.000000,4.000000,4.000000,4.000000,4.000000,100.000000,,,,,,,,,,,,,,,,,,,,,,,,,,,,,,,,,,,,,,,,,,,,,,,,,,,,,,,,,,,,,,,,,,,,,,,,,,,,,,,,,,,,,,
1676663562.880510,1676663562.880513,16.000000,0.000000,4218.461426,4309.102539,4283.846191,4289.487305,4291.282227,4238.077148,4260.256348,4277.436035,4253.077148,4279.487305,4348.974121,4456.282227,4375.000000,4394.743652,0.000000,4.000000,79.000000,,,,0.000000,4.000000,4.000000,4.000000,4.000000,4.000000,4.000000,4.000000,4.000000,4.000000,4.000000,4.000000,4.000000,4.000000,4.000000,100.000000,,,,,,,,,,,,,,,,,,,,,,,,,,,,,,,,,,,,,,,,,,,,,,,,,,,,,,,,,,,,,,,,,,,,,,,,,,,,,,,,,,,,,,
1676663562.888318,1676663562.888421,17.000000,0.000000,4230.512695,4306.666504,4302.051270,4277.563965,4281.666504,4241.153809,4258.717773,4279.358887,4251.922852,4285.897461,4365.384766,4458.717773,4384.230957,4407.563965,0.000000,4.000000,79.000000,,,,0.000000,4.000000,4.000000,4.000000,4.000000,4.000000,4.000000,4.000000,4.000000,4.000000,4.000000,4.000000,4.000000,4.000000,4.000000,100.000000,,,,,,,,,,,,,,,,,,,,,,,,,,,,,,,,,,,,,,,,,,,,,,,,,,,,,,,,,,,,,,,,,,,,,,,,,,,,,,,,,,,,,,
1676663562.896126,1676663562.896229,18.000000,0.000000,4216.025879,4281.153809,4285.000000,4270.128418,4280.128418,4235.384766,4251.538574,4275.512695,4245.512695,4286.410156,4370.512695,4451.410156,4389.487305,4385.128418,0.000000,4.000000,79.000000,,,,0.000000,4.000000,4.000000,4.000000,4.000000,4.000000,4.000000,4.000000,4.000000,4.000000,4.000000,4.000000,4.000000,4.000000,4.000000,100.000000,,,,,,,,,,,,,,,,,,,,,,,,,,,,,,,,,,,,,,,,,,,,,,,,,,,,,,,,,,,,,,,,,,,,,,,,,,,,,,,,,,,,,,
1676663562.903934,1676663562.904137,19.000000,0.000000,4213.077148,4280.897461,4270.512695,4263.717773,4286.282227,4238.589844,4260.000000,4277.948730,4252.820313,4276.922852,4354.487305,4453.846191,4396.153809,4372.307617,0.000000,4.000000,79.000000,,,,0.000000,4.000000,4.000000,4.000000,4.000000,4.000000,4.000000,4.000000,4.000000,4.000000,4.000000,4.000000,4.000000,4.000000,4.000000,100.000000,,,,,,,,,,,,,,,,,,,,,,,,,,,,,,,,,,,,,,,,,,,,,,,,,,,,,,,,,,,,,,,,,,,,,,,,,,,,,,,,,,,,,,
1676663562.911743,1676663562.911946,20.000000,0.000000,4227.051270,4294.615234,4281.794922,4281.666504,4289.615234,4250.128418,4273.333496,4284.358887,4265.256348,4277.051270,4367.051270,4460.000000,4395.000000,4390.897461,0.000000,4.000000,79.000000,,,,0.000000,4.000000,4.000000,4.000000,4.000000,4.000000,4.000000,4.000000,4.000000,4.000000,4.000000,4.000000,4.000000,4.000000,4.000000,100.000000,,,,,,,,,,,,,,,,,,,,,,,,,,,,,,,,,,,,,,,,,,,,,,,,,,,,,,,,,,,,,,,,,,,,,,,,,,,,,,,,,,,,,,
1676663562.919551,1676663562.919854,21.000000,0.000000,4232.436035,4302.307617,4286.538574,4299.871582,4293.333496,4253.077148,4272.179688,4285.128418,4263.077148,4283.974121,4378.589844,4458.205078,4373.974121,4402.436035,0.000000,4.000000,79.000000,,,,0.000000,4.000000,4.000000,4.000000,4.000000,4.000000,4.000000,4.000000,4.000000,4.000000,4.000000,4.000000,4.000000,4.000000,4.000000,100.000000,,,,,,,,,,,,,,,,,115.519928,22.092487,4.740891,0.342154,0.632268,2.320363,0.530459,0.945639,0.367853,0.553037,1.902773,0.727500,1.315692,0.483254,0.810484,4.575634,1.301799,0.661817,1.037391,1.462708,0.665600,0.683283,0.137549,0.148242,0.154668,7.570828,1.566672,0.301472,0.311479,0.163928,42.525894,9.539365,2.125490,0.324163,0.244701,18.352385,6.731991,1.821972,0.252654,0.220022,2.786494,1.210775,0.968686,0.754070,0.258182,2.801669,1.200574,1.283170,0.448205,0.691115,1.204019,1.832987,0.981423,2.074767,2.052662,9.067863,4.028794,2.071181,0.373547,0.686837,0.743865,0.996881,0.891090,0.731783,1.179490,5.205549,2.263165,1.649122,0.429004,0.918036
1676663562.927359,1676663562.927662,22.000000,0.000000,4238.717773,4302.307617,4292.051270,4279.487305,4295.000000,4256.282227,4272.948730,4285.897461,4260.897461,4272.051270,4363.205078,4467.820313,4368.461426,4402.692383,0.000000,4.000000,79.000000,,,,0.000000,4.000000,4.000000,4.000000,4.000000,4.000000,4.000000,4.000000,4.000000,4.000000,4.000000,4.000000,4.000000,4.000000,4.000000,100.000000,,,,,,,,,,,,,,,,,,,,,,,,,,,,,,,,,,,,,,,,,,,,,,,,,,,,,,,,,,,,,,,,,,,,,,,,,,,,,,,,,,,,,,
1676663562.935168,1676663562.935370,23.000000,0.000000,4238.205078,4285.000000,4290.769043,4263.717773,4295.641113,4266.153809,4279.230957,4287.948730,4264.615234,4259.743652,4368.461426,4467.436035,4388.717773,4393.589844,0.000000,4.000000,79.000000,,,,0.000000,4.000000,4.000000,4.000000,4.000000,4.000000,4.000000,4.000000,4.000000,4.000000,4.000000,4.000000,4.000000,4.000000,4.000000,100.000000,,,,,,,,,,,,,,,,,,,,,,,,,,,,,,,,,,,,,,,,,,,,,,,,,,,,,,,,,,,,,,,,,,,,,,,,,,,,,,,,,,,,,,
1676663562.942976,1676663562.943178,24.000000,0.000000,4232.948730,4274.230957,4281.410156,4284.743652,4298.974121,4267.692383,4280.128418,4288.333496,4258.846191,4267.692383,4387.179688,4451.025879,4393.077148,4383.205078,0.000000,4.000000,79.000000,,,,0.000000,4.000000,4.000000,4.000000,4.000000,4.000000,4.000000,4.000000,4.000000,4.000000,4.000000,4.000000,4.000000,4.000000,4.000000,100.000000,,,,,,,,,,,,,,,,,,,,,,,,,,,,,,,,,,,,,,,,,,,,,,,,,,,,,,,,,,,,,,,,,,,,,,,,,,,,,,,,,,,,,,
1676663562.950785,1676663562.950887,25.000000,0.000000,4242.948730,4300.897461,4296.538574,4301.282227,4299.358887,4264.615234,4279.230957,4285.512695,4249.615234,4266.922852,4381.282227,4464.871582,4376.538574,4397.051270,0.000000,4.000000,79.000000,,,,0.000000,4.000000,4.000000,4.000000,4.000000,4.000000,4.000000,4.000000,4.000000,4.000000,4.000000,4.000000,4.000000,4.000000,4.000000,100.000000,,,,,,,,,,,,,,,,,,,,,,,,,,,,,,,,,,,,,,,,,,,,,,,,,,,,,,,,,,,,,,,,,,,,,,,,,,,,,,,,,,,,,,
1676663562.958593,1676663562.958695,26.000000,0.000000,4244.615234,4308.846191,4307.948730,4279.102539,4294.743652,4264.487305,4271.922852,4279.230957,4246.282227,4253.846191,4376.410156,4476.153809,4377.051270,4401.153809,0.000000,4.000000,79.000000,,,,0.000000,4.000000,4.000000,4.000000,4.000000,4.000000,4.000000,4.000000,4.000000,4.000000,4.000000,4.000000,4.000000,4.000000,4.000000,100.000000,,,,,,,,,,,,,,,,,,,,,,,,,,,,,,,,,,,,,,,,,,,,,,,,,,,,,,,,,,,,,,,,,,,,,,,,,,,,,,,,,,,,,,
1676663562.966401,1676663562.966403,27.000000,0.000000,4228.589844,4285.000000,4287.692383,4258.846191,4294.230957,4262.436035,4263.333496,4275.641113,4249.871582,4255.000000,4380.641113,4456.282227,4386.922852,4384.358887,0.000000,4.000000,79.000000,,,,0.000000,4.000000,4.000000,4.000000,4.000000,4.000000,4.000000,4.000000,4.000000,4.000000,4.000000,4.000000,4.000000,4.000000,4.000000,100.000000,,,,,,,,,,,,,,,,,,,,,,,,,,,,,,,,,,,,,,,,,,,,,,,,,,,,,,,,,,,,,,,,,,,,,,,,,,,,,,,,,,,,,,
1676663562.974210,1676663562.974212,28.000000,0.000000,4229.230957,4289.102539,4287.179688,4266.153809,4300.897461,4264.358887,4270.512695,4279.230957,4260.128418,4266.410156,4389.487305,4456.794922,4382.436035,4391.282227,0.000000,4.000000,79.000000,,,,0.000000,4.000000,4.000000,4.000000,4.000000,4.000000,4.000000,4.000000,4.000000,4.000000,4.000000,4.000000,4.000000,4.000000,4.000000,100.000000,,,,,,,,,,,,,,,,,,,,,,,,,,,,,,,,,,,,,,,,,,,,,,,,,,,,,,,,,,,,,,,,,,,,,,,,,,,,,,,,,,,,,,
1676663562.982018,1676663562.981920,29.000000,0.000000,4246.410156,4301.794922,4306.666504,4279.743652,4295.512695,4267.820313,4284.487305,4281.922852,4268.717773,4269.102539,4404.230957,4475.512695,4383.461426,4406.922852,0.000000,4.000000,79.000000,,,,0.000000,4.000000,4.000000,4.000000,4.000000,4.000000,4.000000,4.000000,4.000000,4.000000,4.000000,4.000000,4.000000,4.000000,4.000000,100.000000,,,,,,,,,,,,,,,,,,,,,,,,,,,,,,,,,,,,,,,,,,,,,,,,,,,,,,,,,,,,,,,,,,,,,,,,,,,,,,,,,,,,,,
1676663562.989826,1676663562.989828,30.000000,0.000000,4247.051270,4285.769043,4299.615234,4272.692383,4282.563965,4262.948730,4280.769043,4277.820313,4265.256348,4257.692383,4398.461426,4466.922852,4378.974121,4394.743652,0.000000,4.000000,79.000000,,,,0.000000,4.000000,4.000000,4.000000,4.000000,4.000000,4.000000,4.000000,4.000000,4.000000,4.000000,4.000000,4.000000,4.000000,4.000000,100.000000,,,,,,,,,,,,,,,,,,,,,,,,,,,,,,,,,,,,,,,,,,,,,,,,,,,,,,,,,,,,,,,,,,,,,,,,,,,,,,,,,,,,,,
1676663562.997635,1676663562.997637,31.000000,0.000000,4245.769043,4284.102539,4289.487305,4262.820313,4288.717773,4257.563965,4273.846191,4276.794922,4252.820313,4250.769043,4390.128418,4452.436035,4378.333496,4386.538574,0.000000,4.000000,79.000000,,,,0.000000,4.000000,4.000000,4.000000,4.000000,4.000000,4.000000,4.000000,4.000000,4.000000,4.000000,4.000000,4.000000,4.000000,4.000000,100.000000,,,,,,,,,,,,,,,,,,,,,,,,,,,,,,,,,,,,,,,,,,,,,,,,,,,,,,,,,,,,,,,,,,,,,,,,,,,,,,,,,,,,,,
1676663563.005443,1676663563.005545,32.000000,0.000000,4258.077148,4305.641113,4300.384766,4284.102539,4299.358887,4261.538574,4278.461426,4282.948730,4248.077148,4255.128418,4397.307617,4466.410156,4390.128418,4402.051270,0.000000,4.000000,79.000000,,,,0.000000,4.000000,4.000000,4.000000,4.000000,4.000000,4.000000,4.000000,4.000000,4.000000,4.000000,4.000000,4.000000,4.000000,4.000000,100.000000,,,,,,,,,,,,,,,,,,,,,,,,,,,,,,,,,,,,,,,,,,,,,,,,,,,,,,,,,,,,,,,,,,,,,,,,,,,,,,,,,,,,,,
1676663563.013251,1676663563.013353,33.000000,0.000000,4264.615234,4306.153809,4302.436035,4294.615234,4295.769043,4262.820313,4278.589844,4283.333496,4249.487305,4251.666504,4400.000000,4480.000000,4386.666504,4413.461426,0.000000,4.000000,79.000000,,,,0.000000,4.000000,4.000000,4.000000,4.000000,4.000000,4.000000,4.000000,4.000000,4.000000,4.000000,4.000000,4.000000,4.000000,4.000000,100.000000,,,,,,,,,,,,,,,,,,,,,,,,,,,,,,,,,,,,,,,,,,,,,,,,,,,,,,,,,,,,,,,,,,,,,,,,,,,,,,,,,,,,,,
1676663563.021060,1676663563.021262,34.000000,0.000000,4263.717773,4293.846191,4298.589844,4269.871582,4291.025879,4258.589844,4274.487305,4280.512695,4249.487305,4240.641113,4406.410156,4476.794922,4380.897461,4414.102539,0.000000,4.000000,79.000000,,,,0.000000,4.000000,4.000000,4.000000,4.000000,4.000000,4.000000,4.000000,4.000000,4.000000,4.000000,4.000000,4.000000,4.000000,4.000000,100.000000,,,,,,,,,,,,,,,,,,,,,,,,,,,,,,,,,,,,,,,,,,,,,,,,,,,,,,,,,,,,,,,,,,,,,,,,,,,,,,,,,,,,,,
1676663563.028868,1676663563.029070,35.000000,0.000000,4266.922852,4297.179688,4308.205078,4276.538574,4291.794922,4261.282227,4279.871582,4289.615234,4250.769043,4241.153809,4419.871582,4474.615234,4379.487305,4413.717773,0.000000,4.000000,79.000000,,,,0.000000,4.000000,4.000000,4.000000,4.000000,4.000000,4.000000,4.000000,4.000000,4.000000,4.000000,4.000000,4.000000,4.000000,4.000000,100.000000,,,,,,,,,,,,,,,,,,,,,,,,,,,,,,,,,,,,,,,,,,,,,,,,,,,,,,,,,,,,,,,,,,,,,,,,,,,,,,,,,,,,,,
1676663563.036677,1676663563.036978,36.000000,0.000000,4265.384766,4298.846191,4303.589844,4299.487305,4293.461426,4264.743652,4283.717773,4293.974121,4253.974121,4249.871582,4407.307617,4471.410156,4379.487305,4405.000000,0.000000,4.000000,79.000000,,,,0.000000,4.000000,4.000000,4.000000,4.000000,4.000000,4.000000,4.000000,4.000000,4.000000,4.000000,4.000000,4.000000,4.000000,4.000000,100.000000,,,,,,,,,,,,,,,,,,,,,,,,,,,,,,,,,,,,,,,,,,,,,,,,,,,,,,,,,,,,,,,,,,,,,,,,,,,,,,,,,,,,,,
1676663563.044485,1676663563.044787,37.000000,0.000000,4265.769043,4293.717773,4286.666504,4289.487305,4293.717773,4262.051270,4278.077148,4282.563965,4249.743652,4246.153809,4392.179688,4467.436035,4378.717773,4399.615234,0.000000,4.000000,79.000000,,,,0.000000,4.000000,4.000000,4.000000,4.000000,4.000000,4.000000,4.000000,4.000000,4.000000,4.000000,4.000000,4.000000,4.000000,4.000000,100.000000,,,,,,,,,,,,,,,,,85.493065,15.967678,3.623207,0.263885,0.632229,2.686802,0.655587,0.966515,0.333696,0.764107,2.125345,0.632346,1.336241,0.461955,1.107061,3.741283,1.358878,0.611883,1.004419,1.592705,0.693265,0.770482,0.183288,0.144090,0.214669,7.308744,1.239915,0.296804,0.303542,0.194092,28.700634,6.821997,1.521186,0.282519,0.281925,12.363692,5.121323,1.524794,0.236158,0.222109,2.203052,1.262902,0.919624,0.735434,0.348903,2.281042,1.243262,1.200199,0.456793,0.704353,1.407485,1.758832,0.931119,2.149266,2.246074,6.626128,3.250081,1.707999,0.382991,0.945667,0.708003,0.986675,0.965985,0.853130,1.230447,4.053145,1.882930,1.617220,0.468795,1.174388
1676663563.052293,1676663563.052695,38.000000,0.000000,4278.333496,4297.179688,4297.307617,4270.769043,4291.538574,4259.743652,4276.410156,4281.282227,4246.922852,4243.717773,4416.282227,4467.948730,4380.128418,4409.615234,0.000000,4.000000,79.000000,,,,0.000000,4.000000,4.000000,4.000000,4.000000,4.000000,4.000000,4.000000,4.000000,4.000000,4.000000,4.000000,4.000000,4.000000,4.000000,100.000000,,,,,,,,,,,,,,,,,,,,,,,,,,,,,,,,,,,,,,,,,,,,,,,,,,,,,,,,,,,,,,,,,,,,,,,,,,,,,,,,,,,,,,
1676663563.060102,1676663563.060503,39.000000,0.000000,4281.922852,4303.333496,4316.025879,4278.974121,4289.487305,4261.794922,4283.077148,4293.717773,4258.461426,4247.436035,4439.743652,4476.666504,4395.384766,4420.384766,0.000000,4.000000,79.000000,,,,0.000000,4.000000,4.000000,4.000000,4.000000,4.000000,4.000000,4.000000,4.000000,4.000000,4.000000,4.000000,4.000000,4.000000,4.000000,100.000000,,,,,,,,,,,,,,,,,,,,,,,,,,,,,,,,,,,,,,,,,,,,,,,,,,,,,,,,,,,,,,,,,,,,,,,,,,,,,,,,,,,,,,
1676663563.067910,1676663563.068411,40.000000,0.000000,4281.538574,4313.461426,4321.153809,4305.641113,4293.077148,4265.769043,4284.358887,4292.436035,4270.256348,4252.179688,4428.589844,4493.461426,4411.025879,4430.641113,0.000000,4.000000,79.000000,,,,0.000000,4.000000,4.000000,4.000000,4.000000,4.000000,4.000000,4.000000,4.000000,4.000000,4.000000,4.000000,4.000000,4.000000,4.000000,100.000000,,,,,,,,,,,,,,,,,,,,,,,,,,,,,,,,,,,,,,,,,,,,,,,,,,,,,,,,,,,,,,,,,,,,,,,,,,,,,,,,,,,,,,
1676663563.075718,1676663563.076219,41.000000,0.000000,4283.846191,4312.948730,4316.025879,4316.025879,4292.820313,4266.282227,4278.589844,4283.205078,4266.025879,4253.461426,4409.230957,4493.846191,4399.102539,4430.128418,0.000000,4.000000,79.000000,,,,0.000000,4.000000,4.000000,4.000000,4.000000,4.000000,4.000000,4.000000,4.000000,4.000000,4.000000,4.000000,4.000000,4.000000,4.000000,100.000000,,,,,,,,,,,,,,,,,,,,,,,,,,,,,,,,,,,,,,,,,,,,,,,,,,,,,,,,,,,,,,,,,,,,,,,,,,,,,,,,,,,,,,
1676663563.083527,1676663563.084127,42.000000,0.000000,4272.948730,4294.743652,4302.436035,4290.000000,4283.974121,4262.307617,4275.769043,4282.436035,4254.230957,4241.538574,4415.769043,4469.871582,4378.077148,4412.692383,0.000000,4.000000,79.000000,,,,0.000000,4.000000,4.000000,4.000000,4.000000,4.000000,4.000000,4.000000,4.000000,4.000000,4.000000,4.000000,4.000000,4.000000,4.000000,100.000000,,,,,,,,,,,,,,,,,,,,,,,,,,,,,,,,,,,,,,,,,,,,,,,,,,,,,,,,,,,,,,,,,,,,,,,,,,,,,,,,,,,,,,
1676663563.091335,1676663563.091935,43.000000,0.000000,4270.000000,4288.461426,4297.820313,4257.307617,4276.666504,4263.077148,4280.897461,4281.282227,4246.538574,4232.051270,4431.794922,4462.692383,4382.563965,4406.410156,0.000000,4.000000,79.000000,,,,0.000000,4.000000,4.000000,4.000000,4.000000,4.000000,4.000000,4.000000,4.000000,4.000000,4.000000,4.000000,4.000000,4.000000,4.000000,100.000000,,,,,,,,,,,,,,,,,,,,,,,,,,,,,,,,,,,,,,,,,,,,,,,,,,,,,,,,,,,,,,,,,,,,,,,,,,,,,,,,,,,,,,
1676663563.099143,1676663563.099644,44.000000,0.000000,4275.897461,4294.487305,4295.000000,4274.487305,4281.794922,4262.307617,4278.846191,4273.974121,4239.871582,4226.410156,4423.717773,4471.282227,4378.077148,4408.461426,0.000000,4.000000,79.000000,,,,0.000000,4.000000,4.000000,4.000000,4.000000,4.000000,4.000000,4.000000,4.000000,4.000000,4.000000,4.000000,4.000000,4.000000,4.000000,100.000000,,,,,,,,,,,,,,,,,,,,,,,,,,,,,,,,,,,,,,,,,,,,,,,,,,,,,,,,,,,,,,,,,,,,,,,,,,,,,,,,,,,,,,
1676663563.106952,1676663563.107452,45.000000,0.000000,4268.333496,4293.077148,4281.410156,4302.563965,4291.410156,4253.333496,4269.615234,4270.897461,4230.384766,4223.974121,4394.230957,4460.512695,4363.077148,4401.794922,0.000000,4.000000,79.000000,,,,0.000000,4.000000,4.000000,4.000000,4.000000,4.000000,4.000000,4.000000,4.000000,4.000000,4.000000,4.000000,4.000000,4.000000,4.000000,100.000000,,,,,,,,,,,,,,,,,,,,,,,,,,,,,,,,,,,,,,,,,,,,,,,,,,,,,,,,,,,,,,,,,,,,,,,,,,,,,,,,,,,,,,
1676663563.114760,1676663563.115160,46.000000,0.000000,4265.256348,4295.000000,4283.333496,4290.256348,4286.282227,4243.846191,4269.358887,4279.615234,4228.717773,4228.077148,4392.179688,4458.589844,4371.794922,4402.307617,0.000000,4.000000,79.000000,,,,0.000000,4.000000,4.000000,4.000000,4.000000,4.000000,4.000000,4.000000,4.000000,4.000000,4.000000,4.000000,4.000000,4.000000,4.000000,100.000000,,,,,,,,,,,,,,,,,,,,,,,,,,,,,,,,,,,,,,,,,,,,,,,,,,,,,,,,,,,,,,,,,,,,,,,,,,,,,,,,,,,,,,
1676663563.122568,1676663563.123069,47.000000,0.000000,4280.769043,4306.538574,4298.974121,4277.563965,4277.948730,4238.717773,4273.846191,4282.051270,4238.333496,4231.282227,4421.282227,4478.846191,4384.743652,4413.333496,0.000000,4.000000,79.000000,,,,0.000000,4.000000,4.000000,4.000000,4.000000,4.000000,4.000000,4.000000,4.000000,4.000000,4.000000,4.000000,4.000000,4.000000,4.000000,100.000000,,,,,,,,,,,,,,,,,,,,,,,,,,,,,,,,,,,,,,,,,,,,,,,,,,,,,,,,,,,,,,,,,,,,,,,,,,,,,,,,,,,,,,
1676663563.130377,1676663563.130877,48.000000,0.000000,4284.871582,4307.307617,4298.333496,4285.512695,4278.974121,4232.563965,4267.692383,4279.743652,4245.000000,4235.000000,4438.205078,4478.333496,4381.922852,4418.333496,0.000000,4.000000,79.000000,,,,0.000000,4.000000,4.000000,4.000000,4.000000,4.000000,4.000000,4.000000,4.000000,4.000000,4.000000,4.000000,4.000000,4.000000,4.000000,100.000000,,,,,,,,,,,,,,,,,,,,,,,,,,,,,,,,,,,,,,,,,,,,,,,,,,,,,,,,,,,,,,,,,,,,,,,,,,,,,,,,,,,,,,
1676663563.138185,1676663563.138785,49.000000,0.000000,4284.358887,4309.487305,4304.358887,4284.871582,4282.563965,4229.487305,4264.615234,4290.000000,4249.487305,4245.000000,4435.384766,4477.051270,4381.282227,4425.256348,0.000000,4.000000,79.000000,,,,0.000000,4.000000,4.000000,4.000000,4.000000,4.000000,4.000000,4.000000,4.000000,4.000000,4.000000,4.000000,4.000000,4.000000,4.000000,100.000000,,,,,,,,,,,,,,,,,,,,,,,,,,,,,,,,,,,,,,,,,,,,,,,,,,,,,,,,,,,,,,,,,,,,,,,,,,,,,,,,,,,,,,
1676663563.145994,1676663563.146594,50.000000,0.000000,4293.846191,4322.307617,4325.512695,4279.358887,4284.743652,4237.307617,4273.846191,4297.820313,4259.615234,4248.974121,4424.743652,4501.666504,4390.769043,4436.153809,0.000000,4.000000,79.000000,,,,0.000000,4.000000,4.000000,4.000000,4.000000,4.000000,4.000000,4.000000,4.000000,4.000000,4.000000,4.000000,4.000000,4.000000,4.000000,100.000000,,,,,,,,,,,,,,,,,,,,,,,,,,,,,,,,,,,,,,,,,,,,,,,,,,,,,,,,,,,,,,,,,,,,,,,,,,,,,,,,,,,,,,
1676663563.153802,1676663563.154402,51.000000,0.000000,4292.179688,4321.025879,4321.025879,4301.794922,4284.487305,4246.794922,4280.769043,4290.256348,4265.641113,4245.512695,4428.974121,4501.410156,4392.436035,4428.461426,0.000000,4.000000,79.000000,,,,0.000000,4.000000,4.000000,4.000000,4.000000,4.000000,4.000000,4.000000,4.000000,4.000000,4.000000,4.000000,4.000000,4.000000,4.000000,100.000000,,,,,,,,,,,,,,,,,,,,,,,,,,,,,,,,,,,,,,,,,,,,,,,,,,,,,,,,,,,,,,,,,,,,,,,,,,,,,,,,,,,,,,
1676663563.161610,1676663563.162111,52.000000,0.000000,4289.230957,4307.948730,4306.410156,4310.128418,4281.282227,4247.948730,4281.153809,4286.410156,4265.128418,4249.615234,4445.384766,4481.410156,4383.974121,4418.846191,0.000000,4.000000,79.000000,,,,0.000000,4.000000,4.000000,4.000000,4.000000,4.000000,4.000000,4.000000,4.000000,4.000000,4.000000,4.000000,4.000000,4.000000,4.000000,100.000000,,,,,,,,,,,,,,,,,,,,,,,,,,,,,,,,,,,,,,,,,,,,,,,,,,,,,,,,,,,,,,,,,,,,,,,,,,,,,,,,,,,,,,
1676663563.169419,1676663563.169919,53.000000,0.000000,4292.179688,4312.307617,4312.820313,4290.769043,4279.615234,4249.358887,4284.743652,4291.025879,4262.436035,4243.589844,4446.025879,4488.461426,4381.666504,4424.358887,0.000000,4.000000,79.000000,,,,0.000000,4.000000,4.000000,4.000000,4.000000,4.000000,4.000000,4.000000,4.000000,4.000000,4.000000,4.000000,4.000000,4.000000,4.000000,100.000000,,,,,,,,,,,,,,,,,56.591267,9.740861,2.585026,0.237534,0.640665,3.256480,0.871361,0.957564,0.323954,1.059368,2.367174,0.551460,1.281434,0.439292,1.430595,2.945480,1.419454,0.578494,1.003022,1.844131,0.728198,0.812286,0.283423,0.146818,0.298072,6.293215,0.929879,0.309156,0.293401,0.231426,16.399042,4.129293,1.024391,0.250603,0.334523,7.073380,3.395340,1.175190,0.225240,0.234891,1.618861,1.243701,0.844893,0.672149,0.476069,1.822923,1.285843,1.058713,0.456310,0.712571,1.807908,1.676759,0.825598,2.094038,2.558377,4.493762,2.369461,1.332131,0.397495,1.236200,0.752433,0.955179,1.001466,0.955894,1.335607,3.108083,1.459812,1.527791,0.516646,1.413427
1676663563.177227,1676663563.177627,54.000000,0.000000,4285.256348,4320.769043,4314.487305,4289.358887,4279.871582,4253.077148,4284.743652,4290.384766,4260.256348,4225.641113,4432.307617,4493.974121,4384.358887,4423.974121,0.000000,4.000000,79.000000,,,,0.000000,4.000000,4.000000,4.000000,4.000000,4.000000,4.000000,4.000000,4.000000,4.000000,4.000000,4.000000,4.000000,4.000000,4.000000,100.000000,,,,,,,,,,,,,,,,,,,,,,,,,,,,,,,,,,,,,,,,,,,,,,,,,,,,,,,,,,,,,,,,,,,,,,,,,,,,,,,,,,,,,,
1676663563.185035,1676663563.185535,55.000000,0.000000,4273.589844,4301.282227,4293.205078,4285.897461,4276.922852,4245.256348,4272.307617,4284.615234,4246.410156,4221.282227,4417.436035,4474.487305,4375.256348,4408.846191,0.000000,4.000000,79.000000,,,,0.000000,4.000000,4.000000,4.000000,4.000000,4.000000,4.000000,4.000000,4.000000,4.000000,4.000000,4.000000,4.000000,4.000000,4.000000,100.000000,,,,,,,,,,,,,,,,,,,,,,,,,,,,,,,,,,,,,,,,,,,,,,,,,,,,,,,,,,,,,,,,,,,,,,,,,,,,,,,,,,,,,,
1676663563.192844,1676663563.193344,56.000000,0.000000,4279.871582,4289.102539,4289.102539,4273.974121,4278.077148,4237.436035,4266.794922,4283.846191,4231.282227,4228.974121,4413.205078,4471.538574,4363.717773,4409.230957,0.000000,4.000000,79.000000,,,,0.000000,4.000000,4.000000,4.000000,4.000000,4.000000,4.000000,4.000000,4.000000,4.000000,4.000000,4.000000,4.000000,4.000000,4.000000,100.000000,,,,,,,,,,,,,,,,,,,,,,,,,,,,,,,,,,,,,,,,,,,,,,,,,,,,,,,,,,,,,,,,,,,,,,,,,,,,,,,,,,,,,,
1676663563.200652,1676663563.201252,57.000000,0.000000,4290.384766,4313.974121,4307.692383,4287.948730,4283.589844,4246.025879,4276.922852,4282.948730,4231.025879,4234.871582,4429.102539,4485.000000,4365.897461,4418.333496,0.000000,4.000000,79.000000,,,,0.000000,4.000000,4.000000,4.000000,4.000000,4.000000,4.000000,4.000000,4.000000,4.000000,4.000000,4.000000,4.000000,4.000000,4.000000,100.000000,,,,,,,,,,,,,,,,,,,,,,,,,,,,,,,,,,,,,,,,,,,,,,,,,,,,,,,,,,,,,,,,,,,,,,,,,,,,,,,,,,,,,,
1676663563.208460,1676663563.209061,58.000000,0.000000,4289.615234,4322.820313,4312.820313,4298.077148,4281.025879,4252.820313,4282.051270,4280.897461,4237.563965,4230.897461,4447.051270,4484.487305,4370.769043,4412.179688,0.000000,4.000000,79.000000,,,,0.000000,4.000000,4.000000,4.000000,4.000000,4.000000,4.000000,4.000000,4.000000,4.000000,4.000000,4.000000,4.000000,4.000000,4.000000,100.000000,,,,,,,,,,,,,,,,,,,,,,,,,,,,,,,,,,,,,,,,,,,,,,,,,,,,,,,,,,,,,,,,,,,,,,,,,,,,,,,,,,,,,,
1676663563.216269,1676663563.216969,59.000000,0.000000,4293.333496,4299.871582,4306.794922,4286.538574,4277.692383,4249.487305,4274.102539,4279.230957,4234.358887,4225.000000,4428.333496,4481.282227,4370.000000,4412.436035,0.000000,4.000000,79.000000,,,,0.000000,4.000000,4.000000,4.000000,4.000000,4.000000,4.000000,4.000000,4.000000,4.000000,4.000000,4.000000,4.000000,4.000000,4.000000,100.000000,,,,,,,,,,,,,,,,,,,,,,,,,,,,,,,,,,,,,,,,,,,,,,,,,,,,,,,,,,,,,,,,,,,,,,,,,,,,,,,,,,,,,,
1676663563.224077,1676663563.224778,60.000000,0.000000,4296.794922,4293.205078,4308.333496,4283.589844,4278.846191,4247.436035,4267.820313,4276.794922,4228.974121,4227.051270,4420.769043,4484.230957,4369.615234,4422.692383,0.000000,4.000000,79.000000,,,,0.000000,4.000000,4.000000,4.000000,4.000000,4.000000,4.000000,4.000000,4.000000,4.000000,4.000000,4.000000,4.000000,4.000000,4.000000,100.000000,,,,,,,,,,,,,,,,,,,,,,,,,,,,,,,,,,,,,,,,,,,,,,,,,,,,,,,,,,,,,,,,,,,,,,,,,,,,,,,,,,,,,,
1676663563.231886,1676663563.232686,61.000000,0.000000,4297.307617,4309.230957,4316.794922,4287.948730,4278.974121,4251.666504,4276.153809,4280.897461,4241.538574,4232.820313,4448.205078,4485.000000,4374.871582,4422.948730,0.000000,4.000000,79.000000,,,,0.000000,4.000000,4.000000,4.000000,4.000000,4.000000,4.000000,4.000000,4.000000,4.000000,4.000000,4.000000,4.000000,4.000000,4.000000,100.000000,,,,,,,,,,,,,,,,,,,,,,,,,,,,,,,,,,,,,,,,,,,,,,,,,,,,,,,,,,,,,,,,,,,,,,,,,,,,,,,,,,,,,,
1676663563.239694,1676663563.240494,62.000000,0.000000,4300.000000,4317.948730,4312.820313,4288.717773,4276.922852,4259.102539,4282.948730,4288.846191,4251.025879,4229.487305,4440.769043,4485.256348,4374.358887,4416.410156,0.000000,4.000000,79.000000,,,,0.000000,4.000000,4.000000,4.000000,4.000000,4.000000,4.000000,4.000000,4.000000,4.000000,4.000000,4.000000,4.000000,4.000000,4.000000,100.000000,,,,,,,,,,,,,,,,,,,,,,,,,,,,,,,,,,,,,,,,,,,,,,,,,,,,,,,,,,,,,,,,,,,,,,,,,,,,,,,,,,,,,,
1676663563.247502,1676663563.248402,63.000000,0.000000,4298.333496,4307.307617,4300.384766,4291.410156,4280.256348,4264.358887,4280.128418,4291.410156,4245.384766,4219.615234,4420.256348,4483.589844,4371.282227,4411.794922,0.000000,4.000000,79.000000,,,,0.000000,4.000000,4.000000,4.000000,4.000000,4.000000,4.000000,4.000000,4.000000,4.000000,4.000000,4.000000,4.000000,4.000000,4.000000,100.000000,,,,,,,,,,,,,,,,,,,,,,,,,,,,,,,,,,,,,,,,,,,,,,,,,,,,,,,,,,,,,,,,,,,,,,,,,,,,,,,,,,,,,,
1676663563.255311,1676663563.256210,64.000000,0.000000,4299.358887,4301.410156,4309.230957,4285.384766,4283.846191,4265.000000,4286.922852,4291.153809,4246.410156,4213.717773,4438.717773,4492.948730,4368.974121,4422.436035,2419.000000,4.000000,79.000000,,,,0.000000,4.000000,4.000000,4.000000,4.000000,4.000000,4.000000,4.000000,4.000000,4.000000,4.000000,4.000000,4.000000,4.000000,4.000000,100.000000,,,,,,,,,,,,,,,,,,,,,,,,,,,,,,,,,,,,,,,,,,,,,,,,,,,,,,,,,,,,,,,,,,,,,,,,,,,,,,,,,,,,,,
1676663563.263119,1676663563.264118,65.000000,0.000000,4308.333496,4303.461426,4323.717773,4278.333496,4281.153809,4267.436035,4298.333496,4290.512695,4251.410156,4221.922852,4451.410156,4498.077148,4365.641113,4429.615234,2287.000000,4.000000,79.000000,,,,0.000000,4.000000,4.000000,4.000000,4.000000,4.000000,4.000000,4.000000,4.000000,4.000000,4.000000,4.000000,4.000000,4.000000,4.000000,100.000000,,,,,,,,,,,,,,,,,,,,,,,,,,,,,,,,,,,,,,,,,,,,,,,,,,,,,,,,,,,,,,,,,,,,,,,,,,,,,,,,,,,,,,
1676663563.270927,1676663563.271926,66.000000,0.000000,4313.974121,4300.128418,4314.871582,4293.333496,4280.000000,4268.077148,4289.230957,4286.410156,4247.563965,4237.563965,4438.717773,4486.794922,4366.538574,4419.102539,1760.000000,4.000000,79.000000,,,,0.000000,4.000000,4.000000,4.000000,4.000000,4.000000,4.000000,4.000000,4.000000,4.000000,4.000000,4.000000,4.000000,4.000000,4.000000,100.000000,,,,,,,,,,,,,,,,,,,,,,,,,,,,,,,,,,,,,,,,,,,,,,,,,,,,,,,,,,,,,,,,,,,,,,,,,,,,,,,,,,,,,,
1676663563.278736,1676663563.279835,67.000000,0.000000,4310.384766,4300.000000,4307.051270,4302.563965,4283.077148,4262.820313,4277.307617,4284.487305,4247.051270,4237.051270,4444.487305,4483.077148,4367.820313,4415.256348,2206.000000,4.000000,79.000000,,,,0.000000,4.000000,4.000000,4.000000,4.000000,4.000000,4.000000,4.000000,4.000000,4.000000,4.000000,4.000000,4.000000,4.000000,4.000000,100.000000,,,,,,,,,,,,,,,,,,,,,,,,,,,,,,,,,,,,,,,,,,,,,,,,,,,,,,,,,,,,,,,,,,,,,,,,,,,,,,,,,,,,,,
1676663563.286544,1676663563.287643,68.000000,0.000000,4309.487305,4304.102539,4310.897461,4291.666504,4283.077148,4262.051270,4281.666504,4285.769043,4246.153809,4227.948730,4451.922852,4485.512695,4358.589844,4420.641113,1770.000000,4.000000,79.000000,,,,0.000000,4.000000,4.000000,4.000000,4.000000,4.000000,4.000000,4.000000,4.000000,4.000000,4.000000,4.000000,4.000000,4.000000,4.000000,100.000000,,,,,,,,,,,,,,,,,,,,,,,,,,,,,,,,,,,,,,,,,,,,,,,,,,,,,,,,,,,,,,,,,,,,,,,,,,,,,,,,,,,,,,
1676663563.294352,1676663563.295351,69.000000,0.000000,4319.743652,4299.487305,4304.358887,4285.128418,4279.358887,4265.000000,4289.487305,4284.102539,4233.461426,4228.077148,4427.051270,4484.871582,4350.000000,4419.615234,2319.000000,4.000000,79.000000,,,,0.000000,4.000000,4.000000,4.000000,4.000000,4.000000,4.000000,4.000000,4.000000,4.000000,4.000000,4.000000,4.000000,4.000000,4.000000,100.000000,1.000000,41.666668,3.000000,4.000000,3.000000,3.000000,4.000000,1.000000,1.000000,4.000000,4.000000,4.000000,3.000000,4.000000,4.000000,4.000000,35.483280,5.058992,1.894313,0.257208,0.659109,3.848082,1.111714,0.911425,0.343959,1.394493,2.548608,0.503592,1.157622,0.422301,1.707069,2.434576,1.494854,0.574826,1.030041,2.248255,0.778882,0.797567,0.431834,0.163046,0.394892,4.791206,0.670254,0.343233,0.284329,0.267177,7.903136,2.125031,0.688670,0.232038,0.396007,3.493372,1.994161,0.847996,0.218452,0.257209,1.138362,1.139580,0.750052,0.589451,0.619107,1.497240,1.311874,0.888905,0.441667,0.733241,2.311636,1.665853,0.698141,1.901310,2.954554,3.093609,1.624903,1.038867,0.418539,1.492693,0.836321,0.917368,0.988759,1.007341,1.507084,2.558113,1.108207,1.401538,0.564570,1.578285
1676663563.302161,1676663563.303159,70.000000,0.000000,4332.179688,4295.384766,4301.538574,4295.000000,4280.000000,4264.615234,4298.205078,4291.153809,4234.615234,4232.051270,4426.666504,4488.461426,4363.461426,4420.128418,1968.000000,4.000000,79.000000,,,,0.000000,4.000000,4.000000,4.000000,4.000000,4.000000,4.000000,4.000000,4.000000,4.000000,4.000000,4.000000,4.000000,4.000000,4.000000,100.000000,,,,,,,,,,,,,,,,,,,,,,,,,,,,,,,,,,,,,,,,,,,,,,,,,,,,,,,,,,,,,,,,,,,,,,,,,,,,,,,,,,,,,,
1676663563.309969,1676663563.310868,71.000000,0.000000,4345.897461,4309.102539,4316.153809,4308.717773,4283.589844,4267.307617,4309.743652,4307.948730,4256.922852,4234.230957,4458.333496,4500.128418,4381.282227,4433.717773,1548.000000,4.000000,79.000000,,,,0.000000,4.000000,4.000000,4.000000,4.000000,4.000000,4.000000,4.000000,4.000000,4.000000,4.000000,4.000000,4.000000,4.000000,4.000000,100.000000,,,,,,,,,,,,,,,,,,,,,,,,,,,,,,,,,,,,,,,,,,,,,,,,,,,,,,,,,,,,,,,,,,,,,,,,,,,,,,,,,,,,,,
1676663563.317778,1676663563.318676,72.000000,0.000000,4377.307617,4313.461426,4330.000000,4295.512695,4280.512695,4274.871582,4319.615234,4317.307617,4273.333496,4235.256348,4469.871582,4514.743652,4377.051270,4445.769043,2396.000000,4.000000,79.000000,,,,0.000000,4.000000,4.000000,4.000000,4.000000,4.000000,4.000000,4.000000,4.000000,4.000000,4.000000,4.000000,4.000000,4.000000,4.000000,100.000000,,,,,,,,,,,,,,,,,,,,,,,,,,,,,,,,,,,,,,,,,,,,,,,,,,,,,,,,,,,,,,,,,,,,,,,,,,,,,,,,,,,,,,
1676663563.325586,1676663563.326384,73.000000,0.000000,4417.051270,4298.205078,4322.179688,4288.846191,4276.153809,4272.692383,4326.922852,4320.128418,4270.256348,4235.000000,4464.615234,4517.948730,4365.512695,4445.769043,2319.000000,4.000000,79.000000,,,,0.000000,4.000000,4.000000,4.000000,4.000000,4.000000,4.000000,4.000000,4.000000,4.000000,4.000000,4.000000,4.000000,4.000000,4.000000,100.000000,,,,,,,,,,,,,,,,,,,,,,,,,,,,,,,,,,,,,,,,,,,,,,,,,,,,,,,,,,,,,,,,,,,,,,,,,,,,,,,,,,,,,,
1676663563.333394,1676663563.334192,74.000000,0.000000,4427.563965,4291.666504,4307.051270,4314.230957,4278.205078,4265.256348,4325.897461,4322.692383,4265.128418,4233.461426,4456.794922,4511.794922,4361.025879,4444.871582,2309.000000,4.000000,79.000000,,,,0.000000,4.000000,4.000000,4.000000,4.000000,4.000000,4.000000,4.000000,4.000000,4.000000,4.000000,4.000000,4.000000,4.000000,4.000000,100.000000,,,,,,,,,,,,,,,,,,,,,,,,,,,,,,,,,,,,,,,,,,,,,,,,,,,,,,,,,,,,,,,,,,,,,,,,,,,,,,,,,,,,,,
1676663563.341203,1676663563.341901,75.000000,0.000000,4407.563965,4298.077148,4307.563965,4323.846191,4281.282227,4268.205078,4316.282227,4321.538574,4273.846191,4228.333496,4440.512695,4513.205078,4361.282227,4450.384766,2555.000000,4.000000,79.000000,,,,0.000000,4.000000,4.000000,4.000000,4.000000,4.000000,4.000000,4.000000,4.000000,4.000000,4.000000,4.000000,4.000000,4.000000,4.000000,100.000000,,,,,,,,,,,,,,,,,,,,,,,,,,,,,,,,,,,,,,,,,,,,,,,,,,,,,,,,,,,,,,,,,,,,,,,,,,,,,,,,,,,,,,
1676663563.349011,1676663563.349709,76.000000,0.000000,4385.000000,4300.641113,4307.692383,4300.256348,4278.589844,4274.358887,4306.282227,4313.717773,4280.256348,4235.000000,4447.179688,4511.922852,4366.025879,4447.563965,2316.000000,4.000000,79.000000,,,,0.000000,4.000000,4.000000,4.000000,4.000000,4.000000,4.000000,4.000000,4.000000,4.000000,4.000000,4.000000,4.000000,4.000000,4.000000,100.000000,,,,,,,,,,,,,,,,,,,,,,,,,,,,,,,,,,,,,,,,,,,,,,,,,,,,,,,,,,,,,,,,,,,,,,,,,,,,,,,,,,,,,,
1676663563.356819,1676663563.357417,77.000000,0.000000,4367.563965,4286.666504,4298.205078,4289.230957,4275.512695,4275.128418,4298.461426,4307.692383,4271.153809,4247.307617,4466.282227,4493.205078,4369.102539,4433.077148,2571.000000,4.000000,79.000000,,,,0.000000,4.000000,4.000000,4.000000,4.000000,4.000000,4.000000,4.000000,4.000000,4.000000,4.000000,4.000000,4.000000,4.000000,4.000000,100.000000,,,,,,,,,,,,,,,,,,,,,,,,,,,,,,,,,,,,,,,,,,,,,,,,,,,,,,,,,,,,,,,,,,,,,,,,,,,,,,,,,,,,,,
1676663563.364627,1676663563.365225,78.000000,0.000000,4348.333496,4276.282227,4295.128418,4299.487305,4277.179688,4266.794922,4294.102539,4306.282227,4260.769043,4236.538574,4451.282227,4487.820313,4359.871582,4424.743652,2309.000000,4.000000,79.000000,,,,0.000000,4.000000,4.000000,4.000000,4.000000,4.000000,4.000000,4.000000,4.000000,4.000000,4.000000,4.000000,4.000000,4.000000,4.000000,100.000000,,,,,,,,,,,,,,,,,,,,,,,,,,,,,,,,,,,,,,,,,,,,,,,,,,,,,,,,,,,,,,,,,,,,,,,,,,,,,,,,,,,,,,
1676663563.372436,1676663563.372934,79.000000,0.000000,4332.820313,4288.846191,4300.000000,4290.512695,4280.384766,4253.205078,4297.051270,4300.256348,4262.051270,4223.589844,4436.538574,4492.820313,4354.743652,4423.974121,2555.000000,4.000000,79.000000,,,,0.000000,4.000000,4.000000,4.000000,4.000000,4.000000,4.000000,4.000000,4.000000,4.000000,4.000000,4.000000,4.000000,4.000000,4.000000,100.000000,,,,,,,,,,,,,,,,,,,,,,,,,,,,,,,,,,,,,,,,,,,,,,,,,,,,,,,,,,,,,,,,,,,,,,,,,,,,,,,,,,,,,,
1676663563.380244,1676663563.380742,80.000000,0.000000,4327.179688,4300.384766,4297.820313,4284.358887,4279.871582,4246.666504,4300.512695,4292.179688,4260.897461,4234.102539,4446.410156,4487.563965,4359.615234,4423.461426,2316.000000,4.000000,79.000000,,,,0.000000,4.000000,4.000000,4.000000,4.000000,4.000000,4.000000,4.000000,4.000000,4.000000,4.000000,4.000000,4.000000,4.000000,4.000000,100.000000,,,,,,,,,,,,,,,,,,,,,,,,,,,,,,,,,,,,,,,,,,,,,,,,,,,,,,,,,,,,,,,,,,,,,,,,,,,,,,,,,,,,,,
1676663563.388053,1676663563.388450,81.000000,0.000000,4319.230957,4285.256348,4296.153809,4290.000000,4278.205078,4245.256348,4296.666504,4293.333496,4256.153809,4236.666504,4444.102539,4483.589844,4357.307617,4420.897461,2571.000000,4.000000,79.000000,,,,0.000000,4.000000,4.000000,4.000000,4.000000,4.000000,4.000000,4.000000,4.000000,4.000000,4.000000,4.000000,4.000000,4.000000,4.000000,100.000000,,,,,,,,,,,,,,,,,,,,,,,,,,,,,,,,,,,,,,,,,,,,,,,,,,,,,,,,,,,,,,,,,,,,,,,,,,,,,,,,,,,,,,
1676663563.395861,1676663563.396359,82.000000,0.000000,4309.102539,4275.128418,4301.538574,4283.717773,4281.025879,4241.794922,4293.717773,4300.512695,4261.282227,4227.563965,4438.077148,4489.871582,4350.256348,4416.922852,2309.000000,4.000000,79.000000,,,,0.000000,4.000000,4.000000,4.000000,4.000000,4.000000,4.000000,4.000000,4.000000,4.000000,4.000000,4.000000,4.000000,4.000000,4.000000,100.000000,,,,,,,,,,,,,,,,,,,,,,,,,,,,,,,,,,,,,,,,,,,,,,,,,,,,,,,,,,,,,,,,,,,,,,,,,,,,,,,,,,,,,,
1676663563.403669,1676663563.404167,83.000000,0.000000,4309.358887,4289.358887,4312.948730,4285.384766,4282.307617,4243.333496,4296.282227,4306.153809,4279.487305,4240.384766,4453.205078,4495.769043,4354.743652,4421.538574,2555.000000,4.000000,79.000000,,,,0.000000,4.000000,4.000000,4.000000,4.000000,4.000000,4.000000,4.000000,4.000000,4.000000,4.000000,4.000000,4.000000,4.000000,4.000000,100.000000,,,,,,,,,,,,,,,,,,,,,,,,,,,,,,,,,,,,,,,,,,,,,,,,,,,,,,,,,,,,,,,,,,,,,,,,,,,,,,,,,,,,,,
1676663563.411478,1676663563.412075,84.000000,0.000000,4302.820313,4286.666504,4312.307617,4296.794922,4278.333496,4248.205078,4294.487305,4310.897461,4295.384766,4254.102539,4464.743652,4495.512695,4361.666504,4423.205078,2316.000000,4.000000,79.000000,1,1,1,0.000000,4.000000,4.000000,4.000000,4.000000,4.000000,4.000000,4.000000,4.000000,4.000000,4.000000,4.000000,4.000000,4.000000,4.000000,100.000000,,,,,,,,,,,,,,,,,,,,,,,,,,,,,,,,,,,,,,,,,,,,,,,,,,,,,,,,,,,,,,,,,,,,,,,,,,,,,,,,,,,,,,
1676663563.419286,1676663563.419884,85.000000,0.000000,4283.717773,4269.743652,4293.717773,4290.128418,4278.333496,4246.794922,4287.820313,4308.205078,4292.051270,4249.102539,4458.589844,4486.666504,4351.025879,4409.615234,2571.000000,4.000000,79.000000,,,,0.000000,4.000000,4.000000,4.000000,4.000000,4.000000,4.000000,4.000000,4.000000,4.000000,4.000000,4.000000,4.000000,4.000000,4.000000,100.000000,,,,,,,,,,,,,,,,,23.730391,2.578817,1.611878,0.297629,0.673819,4.302074,1.311221,0.837070,0.393950,1.693926,2.589203,0.512811,1.007181,0.418330,1.862916,2.240026,1.572195,0.602974,1.077095,2.762863,0.838901,0.729448,0.597527,0.192718,0.483701,3.338410,0.481885,0.393897,0.276724,0.290603,3.377078,1.039173,0.497922,0.223657,0.450116,1.572811,1.133322,0.583434,0.211377,0.281376,0.839683,1.011591,0.653631,0.513436,0.740728,1.289835,1.312226,0.733833,0.411868,0.771098,2.715829,1.761646,0.587042,1.604355,3.331120,2.364518,1.171882,0.868291,0.447446,1.648086,0.913117,0.900073,0.940989,0.988676,1.705095,2.353025,0.906002,1.262749,0.608617,1.627857
1676663563.427094,1676663563.427792,86.000000,0.000000,4282.820313,4282.563965,4293.461426,4285.512695,4281.538574,4254.102539,4290.128418,4304.358887,4282.051270,4246.538574,4451.666504,4486.538574,4348.077148,4412.820313,2309.000000,4.000000,79.000000,,,,0.000000,4.000000,4.000000,4.000000,4.000000,4.000000,4.000000,4.000000,4.000000,4.000000,4.000000,4.000000,4.000000,4.000000,4.000000,100.000000,,,,,,,,,,,,,,,,,,,,,,,,,,,,,,,,,,,,,,,,,,,,,,,,,,,,,,,,,,,,,,,,,,,,,,,,,,,,,,,,,,,,,,
1676663563.434903,1676663563.435601,87.000000,0.000000,4289.230957,4299.230957,4312.563965,4295.256348,4281.025879,4265.897461,4295.256348,4302.692383,4279.487305,4244.871582,4457.307617,4495.000000,4356.794922,4426.025879,2555.000000,4.000000,79.000000,,,,0.000000,4.000000,4.000000,4.000000,4.000000,4.000000,4.000000,4.000000,4.000000,4.000000,4.000000,4.000000,4.000000,4.000000,4.000000,100.000000,,,,,,,,,,,,,,,,,,,,,,,,,,,,,,,,,,,,,,,,,,,,,,,,,,,,,,,,,,,,,,,,,,,,,,,,,,,,,,,,,,,,,,
1676663563.442711,1676663563.443509,88.000000,0.000000,4281.538574,4286.666504,4320.641113,4296.922852,4281.153809,4265.897461,4295.128418,4297.436035,4280.512695,4244.615234,4468.205078,4493.461426,4356.025879,4419.743652,2316.000000,4.000000,79.000000,,,,0.000000,4.000000,4.000000,4.000000,4.000000,4.000000,4.000000,4.000000,4.000000,4.000000,4.000000,4.000000,4.000000,4.000000,4.000000,100.000000,,,,,,,,,,,,,,,,,,,,,,,,,,,,,,,,,,,,,,,,,,,,,,,,,,,,,,,,,,,,,,,,,,,,,,,,,,,,,,,,,,,,,,
1676663563.450519,1676663563.451317,89.000000,0.000000,4273.589844,4278.333496,4314.230957,4292.692383,4283.333496,4267.563965,4294.615234,4290.769043,4276.153809,4243.205078,4454.743652,4487.051270,4341.922852,4411.025879,2571.000000,4.000000,79.000000,,,,0.000000,4.000000,4.000000,4.000000,4.000000,4.000000,4.000000,4.000000,4.000000,4.000000,4.000000,4.000000,4.000000,4.000000,4.000000,100.000000,,,,,,,,,,,,,,,,,,,,,,,,,,,,,,,,,,,,,,,,,,,,,,,,,,,,,,,,,,,,,,,,,,,,,,,,,,,,,,,,,,,,,,
1676663563.458328,1676663563.459225,90.000000,0.000000,4273.846191,4288.717773,4315.897461,4284.102539,4281.666504,4277.179688,4295.512695,4288.717773,4265.000000,4234.615234,4439.615234,4488.717773,4330.128418,4411.282227,2309.000000,4.000000,79.000000,,,,0.000000,4.000000,4.000000,4.000000,4.000000,4.000000,4.000000,4.000000,4.000000,4.000000,4.000000,4.000000,4.000000,4.000000,4.000000,100.000000,,,,,,,,,,,,,,,,,,,,,,,,,,,,,,,,,,,,,,,,,,,,,,,,,,,,,,,,,,,,,,,,,,,,,,,,,,,,,,,,,,,,,,
1676663563.466136,1676663563.467033,91.000000,0.000000,4280.641113,4294.230957,4323.205078,4287.563965,4279.230957,4280.897461,4297.051270,4291.666504,4264.230957,4234.871582,4451.538574,4492.436035,4336.922852,4417.051270,2555.000000,4.000000,79.000000,,,,0.000000,4.000000,4.000000,4.000000,4.000000,4.000000,4.000000,4.000000,4.000000,4.000000,4.000000,4.000000,4.000000,4.000000,4.000000,100.000000,,,,,,,,,,,,,,,,,,,,,,,,,,,,,,,,,,,,,,,,,,,,,,,,,,,,,,,,,,,,,,,,,,,,,,,,,,,,,,,,,,,,,,
1676663563.473945,1676663563.474941,92.000000,0.000000,4278.974121,4285.000000,4310.000000,4308.077148,4281.025879,4279.358887,4291.794922,4295.128418,4276.282227,4250.256348,4470.384766,4486.922852,4348.589844,4415.384766,2316.000000,4.000000,79.000000,,,,0.000000,4.000000,4.000000,4.000000,4.000000,4.000000,4.000000,4.000000,4.000000,4.000000,4.000000,4.000000,4.000000,4.000000,4.000000,100.000000,,,,,,,,,,,,,,,,,,,,,,,,,,,,,,,,,,,,,,,,,,,,,,,,,,,,,,,,,,,,,,,,,,,,,,,,,,,,,,,,,,,,,,
1676663563.481753,1676663563.482750,93.000000,0.000000,4262.179688,4268.461426,4282.820313,4294.871582,4276.922852,4277.563965,4282.307617,4296.410156,4274.487305,4250.769043,4465.384766,4468.333496,4340.641113,4394.871582,2571.000000,4.000000,79.000000,,,,0.000000,4.000000,4.000000,4.000000,4.000000,4.000000,4.000000,4.000000,4.000000,4.000000,4.000000,4.000000,4.000000,4.000000,4.000000,100.000000,,,,,,,,,,,,,,,,,,,,,,,,,,,,,,,,,,,,,,,,,,,,,,,,,,,,,,,,,,,,,,,,,,,,,,,,,,,,,,,,,,,,,,
1676663563.489561,1676663563.490458,94.000000,0.000000,4258.205078,4259.230957,4269.358887,4258.974121,4269.615234,4275.512695,4280.897461,4292.948730,4261.282227,4230.256348,4443.589844,4455.641113,4318.205078,4376.153809,2309.000000,4.000000,79.000000,,,,0.000000,4.000000,4.000000,4.000000,4.000000,4.000000,4.000000,4.000000,4.000000,4.000000,4.000000,4.000000,4.000000,4.000000,4.000000,100.000000,,,,,,,,,,,,,,,,,,,,,,,,,,,,,,,,,,,,,,,,,,,,,,,,,,,,,,,,,,,,,,,,,,,,,,,,,,,,,,,,,,,,,,
1676663563.497370,1676663563.498266,95.000000,0.000000,4281.025879,4261.666504,4286.282227,4260.128418,4270.128418,4283.589844,4290.128418,4297.436035,4269.230957,4225.512695,4435.641113,4474.358887,4316.410156,4395.000000,2555.000000,4.000000,79.000000,,,,0.000000,4.000000,4.000000,4.000000,4.000000,4.000000,4.000000,4.000000,4.000000,4.000000,4.000000,4.000000,4.000000,4.000000,4.000000,100.000000,,,,,,,,,,,,,,,,,,,,,,,,,,,,,,,,,,,,,,,,,,,,,,,,,,,,,,,,,,,,,,,,,,,,,,,,,,,,,,,,,,,,,,
1676663563.505178,1676663563.505974,96.000000,0.000000,4293.205078,4266.282227,4300.256348,4285.769043,4278.461426,4295.256348,4297.051270,4309.487305,4284.615234,4239.102539,4446.282227,4496.153809,4328.589844,4415.641113,2316.000000,4.000000,79.000000,,,,0.000000,4.000000,4.000000,4.000000,4.000000,4.000000,4.000000,4.000000,4.000000,4.000000,4.000000,4.000000,4.000000,4.000000,4.000000,100.000000,,,,,,,,,,,,,,,,,,,,,,,,,,,,,,,,,,,,,,,,,,,,,,,,,,,,,,,,,,,,,,,,,,,,,,,,,,,,,,,,,,,,,,
1676663563.512986,1676663563.513783,97.000000,0.000000,4297.307617,4271.410156,4298.333496,4289.743652,4285.512695,4296.282227,4296.666504,4311.538574,4283.717773,4248.717773,4473.077148,4490.897461,4337.563965,4411.025879,2571.000000,4.000000,79.000000,,,,0.000000,4.000000,4.000000,4.000000,4.000000,4.000000,4.000000,4.000000,4.000000,4.000000,4.000000,4.000000,4.000000,4.000000,4.000000,100.000000,,,,,,,,,,,,,,,,,,,,,,,,,,,,,,,,,,,,,,,,,,,,,,,,,,,,,,,,,,,,,,,,,,,,,,,,,,,,,,,,,,,,,,
1676663563.520795,1676663563.521491,98.000000,0.000000,4317.692383,4281.282227,4302.051270,4293.717773,4285.128418,4295.256348,4297.051270,4305.641113,4280.641113,4252.820313,4492.051270,4487.948730,4347.436035,4418.077148,2309.000000,4.000000,79.000000,,,,0.000000,4.000000,4.000000,4.000000,4.000000,4.000000,4.000000,4.000000,4.000000,4.000000,4.000000,4.000000,4.000000,4.000000,4.000000,100.000000,,,,,,,,,,,,,,,,,,,,,,,,,,,,,,,,,,,,,,,,,,,,,,,,,,,,,,,,,,,,,,,,,,,,,,,,,,,,,,,,,,,,,,
1676663563.528603,1676663563.529399,99.000000,0.000000,4339.871582,4282.820313,4312.948730,4307.307617,4282.051270,4298.717773,4302.563965,4307.179688,4280.128418,4252.563965,4488.589844,4503.205078,4344.615234,4433.589844,2555.000000,4.000000,79.000000,,,,0.000000,4.000000,4.000000,4.000000,4.000000,4.000000,4.000000,4.000000,4.000000,4.000000,4.000000,4.000000,4.000000,4.000000,4.000000,100.000000,,,,,,,,,,,,,,,,,,,,,,,,,,,,,,,,,,,,,,,,,,,,,,,,,,,,,,,,,,,,,,,,,,,,,,,,,,,,,,,,,,,,,,
1676663563.536411,1676663563.537208,100.000000,0.000000,4360.000000,4281.282227,4314.102539,4314.871582,4281.282227,4303.077148,4313.974121,4315.384766,4277.820313,4249.487305,4480.000000,4510.384766,4339.743652,4433.205078,2316.000000,4.000000,79.000000,,,,0.000000,4.000000,4.000000,4.000000,4.000000,4.000000,4.000000,4.000000,4.000000,4.000000,4.000000,4.000000,4.000000,4.000000,4.000000,100.000000,,,,,,,,,,,,,,,,,,,,,,,,,,,,,,,,,,,,,,,,,,,,,,,,,,,,,,,,,,,,,,,,,,,,,,,,,,,,,,,,,,,,,,
1676663563.544220,1676663563.545016,101.000000,0.000000,4383.589844,4284.487305,4309.230957,4315.384766,4283.333496,4307.179688,4320.641113,4317.436035,4278.717773,4248.333496,4471.794922,4510.128418,4349.615234,4434.102539,2571.000000,4.000000,79.000000,,,,0.000000,4.000000,4.000000,4.000000,4.000000,4.000000,4.000000,4.000000,4.000000,4.000000,4.000000,4.000000,4.000000,4.000000,4.000000,100.000000,,,,,,,,,,,,,,,,,18.938452,1.940016,1.620622,0.333854,0.664930,4.377738,1.431085,0.756104,0.464879,1.880823,2.439984,0.610354,0.892711,0.432369,1.855920,2.254833,1.619256,0.650339,1.135436,3.269655,0.884546,0.626714,0.734553,0.228003,0.539076,2.281349,0.381507,0.453051,0.267537,0.293829,1.666696,0.678524,0.414295,0.223016,0.478398,0.880969,0.772220,0.393917,0.201126,0.296631,0.712088,1.009609,0.594985,0.461011,0.803098,1.128869,1.299937,0.639900,0.370264,0.812424,2.882725,1.945541,0.521318,1.264006,3.560500,2.079053,1.045149,0.810252,0.481778,1.661360,0.939682,0.942179,0.890952,0.905156,1.851303,2.339977,0.882133,1.137267,0.647353,1.551510
1676663563.552028,1676663563.552724,102.000000,0.000000,4385.897461,4278.333496,4311.153809,4304.743652,4283.077148,4309.871582,4317.051270,4313.717773,4277.179688,4251.025879,4474.487305,4514.358887,4354.358887,4446.538574,2309.000000,4.000000,79.000000,,,,0.000000,4.000000,4.000000,4.000000,4.000000,4.000000,4.000000,4.000000,4.000000,4.000000,4.000000,4.000000,4.000000,4.000000,4.000000,100.000000,,,,,,,,,,,,,,,,,,,,,,,,,,,,,,,,,,,,,,,,,,,,,,,,,,,,,,,,,,,,,,,,,,,,,,,,,,,,,,,,,,,,,,
1676663563.559837,1676663563.560633,103.000000,0.000000,4370.769043,4273.974121,4310.512695,4296.282227,4280.512695,4309.615234,4313.846191,4314.615234,4274.102539,4250.769043,4484.615234,4511.025879,4344.743652,4447.179688,2555.000000,4.000000,79.000000,,,,0.000000,4.000000,4.000000,4.000000,4.000000,4.000000,4.000000,4.000000,4.000000,4.000000,4.000000,4.000000,4.000000,4.000000,4.000000,100.000000,,,,,,,,,,,,,,,,,,,,,,,,,,,,,,,,,,,,,,,,,,,,,,,,,,,,,,,,,,,,,,,,,,,,,,,,,,,,,,,,,,,,,,
1676663563.567645,1676663563.568441,104.000000,0.000000,4372.307617,4284.230957,4308.077148,4306.794922,4281.153809,4308.846191,4308.205078,4317.051270,4277.563965,4246.922852,4491.794922,4507.820313,4346.025879,4439.358887,2316.000000,4.000000,79.000000,,,,0.000000,4.000000,4.000000,4.000000,4.000000,4.000000,4.000000,4.000000,4.000000,4.000000,4.000000,4.000000,4.000000,4.000000,4.000000,100.000000,,,,,,,,,,,,,,,,,,,,,,,,,,,,,,,,,,,,,,,,,,,,,,,,,,,,,,,,,,,,,,,,,,,,,,,,,,,,,,,,,,,,,,
1676663563.575453,1676663563.576350,105.000000,0.000000,4370.128418,4287.563965,4312.436035,4312.436035,4281.666504,4307.179688,4297.179688,4313.461426,4281.025879,4248.589844,4488.717773,4512.948730,4354.615234,4441.282227,2571.000000,4.000000,79.000000,,,,0.000000,4.000000,4.000000,4.000000,4.000000,4.000000,4.000000,4.000000,4.000000,4.000000,4.000000,4.000000,4.000000,4.000000,4.000000,100.000000,,,,,,,,,,,,,,,,,,,,,,,,,,,,,,,,,,,,,,,,,,,,,,,,,,,,,,,,,,,,,,,,,,,,,,,,,,,,,,,,,,,,,,
1676663563.583262,1676663563.584158,106.000000,0.000000,4331.025879,4272.563965,4312.051270,4287.692383,4280.897461,4311.794922,4294.230957,4305.897461,4281.794922,4251.666504,4481.153809,4505.897461,4346.794922,4432.948730,2309.000000,4.000000,79.000000,,,,0.000000,4.000000,4.000000,4.000000,4.000000,4.000000,4.000000,4.000000,4.000000,4.000000,4.000000,4.000000,4.000000,4.000000,4.000000,100.000000,,,,,,,,,,,,,,,,,,,,,,,,,,,,,,,,,,,,,,,,,,,,,,,,,,,,,,,,,,,,,,,,,,,,,,,,,,,,,,,,,,,,,,
1676663563.591070,1676663563.592066,107.000000,0.000000,4283.974121,4270.769043,4299.615234,4274.615234,4280.641113,4317.948730,4293.589844,4298.717773,4281.025879,4249.871582,4473.589844,4482.436035,4337.051270,4413.077148,2555.000000,4.000000,79.000000,,,,0.000000,4.000000,4.000000,4.000000,4.000000,4.000000,4.000000,4.000000,4.000000,4.000000,4.000000,4.000000,4.000000,4.000000,4.000000,100.000000,,,,,,,,,,,,,,,,,,,,,,,,,,,,,,,,,,,,,,,,,,,,,,,,,,,,,,,,,,,,,,,,,,,,,,,,,,,,,,,,,,,,,,
1676663563.598878,1676663563.599875,108.000000,0.000000,4263.846191,4283.589844,4293.077148,4282.307617,4279.743652,4317.820313,4283.846191,4293.589844,4278.077148,4251.282227,4469.102539,4471.666504,4342.436035,4406.153809,2316.000000,4.000000,79.000000,,,,0.000000,4.000000,4.000000,4.000000,4.000000,4.000000,4.000000,4.000000,4.000000,4.000000,4.000000,4.000000,4.000000,4.000000,4.000000,100.000000,,,,,,,,,,,,,,,,,,,,,,,,,,,,,,,,,,,,,,,,,,,,,,,,,,,,,,,,,,,,,,,,,,,,,,,,,,,,,,,,,,,,,,
1676663563.606687,1676663563.607783,109.000000,0.000000,4256.666504,4275.384766,4306.538574,4277.948730,4276.922852,4324.230957,4279.358887,4289.487305,4274.871582,4258.205078,4477.307617,4479.743652,4346.025879,4411.666504,2571.000000,4.000000,79.000000,,,,0.000000,4.000000,4.000000,4.000000,4.000000,4.000000,4.000000,4.000000,4.000000,4.000000,4.000000,4.000000,4.000000,4.000000,4.000000,100.000000,,,,,,,,,,,,,,,,,,,,,,,,,,,,,,,,,,,,,,,,,,,,,,,,,,,,,,,,,,,,,,,,,,,,,,,,,,,,,,,,,,,,,,
1676663563.614495,1676663563.615592,110.000000,0.000000,4240.256348,4259.487305,4306.922852,4285.641113,4277.563965,4327.051270,4276.794922,4285.256348,4270.769043,4256.538574,4475.128418,4475.256348,4333.333496,4400.897461,2309.000000,4.000000,79.000000,,,,0.000000,4.000000,4.000000,4.000000,4.000000,4.000000,4.000000,4.000000,4.000000,4.000000,4.000000,4.000000,4.000000,4.000000,4.000000,100.000000,,,,,,,,,,,,,,,,,,,,,,,,,,,,,,,,,,,,,,,,,,,,,,,,,,,,,,,,,,,,,,,,,,,,,,,,,,,,,,,,,,,,,,
1676663563.622303,1676663563.623500,111.000000,0.000000,4224.871582,4260.512695,4285.512695,4294.230957,4279.615234,4315.641113,4268.205078,4281.025879,4263.717773,4248.077148,4460.769043,4456.666504,4320.000000,4381.282227,2555.000000,4.000000,79.000000,,,,0.000000,4.000000,4.000000,4.000000,4.000000,4.000000,4.000000,4.000000,4.000000,4.000000,4.000000,4.000000,4.000000,4.000000,4.000000,100.000000,,,,,,,,,,,,,,,,,,,,,,,,,,,,,,,,,,,,,,,,,,,,,,,,,,,,,,,,,,,,,,,,,,,,,,,,,,,,,,,,,,,,,,
1676663563.630112,1676663563.631308,112.000000,0.000000,4227.051270,4262.820313,4278.077148,4278.717773,4278.205078,4312.436035,4270.897461,4278.846191,4258.846191,4246.538574,4457.948730,4451.538574,4318.205078,4383.589844,2316.000000,4.000000,79.000000,,,,0.000000,4.000000,4.000000,4.000000,4.000000,4.000000,4.000000,4.000000,4.000000,4.000000,4.000000,4.000000,4.000000,4.000000,4.000000,100.000000,,,,,,,,,,,,,,,,,,,,,,,,,,,,,,,,,,,,,,,,,,,,,,,,,,,,,,,,,,,,,,,,,,,,,,,,,,,,,,,,,,,,,,
1676663563.637920,1676663563.639216,113.000000,0.000000,4235.897461,4262.051270,4291.410156,4276.025879,4279.230957,4319.871582,4275.384766,4278.717773,4261.922852,4248.846191,4459.743652,4461.025879,4326.153809,4393.077148,2571.000000,4.000000,79.000000,,,,0.000000,4.000000,4.000000,4.000000,4.000000,4.000000,4.000000,4.000000,4.000000,4.000000,4.000000,4.000000,4.000000,4.000000,4.000000,100.000000,,,,,,,,,,,,,,,,,,,,,,,,,,,,,,,,,,,,,,,,,,,,,,,,,,,,,,,,,,,,,,,,,,,,,,,,,,,,,,,,,,,,,,
1676663563.645728,1676663563.647024,114.000000,0.000000,4230.128418,4264.230957,4292.179688,4288.846191,4279.743652,4319.487305,4266.025879,4280.256348,4267.051270,4251.922852,4461.025879,4460.128418,4335.256348,4387.051270,2309.000000,4.000000,79.000000,,,,0.000000,4.000000,4.000000,4.000000,4.000000,4.000000,4.000000,4.000000,4.000000,4.000000,4.000000,4.000000,4.000000,4.000000,4.000000,100.000000,,,,,,,,,,,,,,,,,,,,,,,,,,,,,,,,,,,,,,,,,,,,,,,,,,,,,,,,,,,,,,,,,,,,,,,,,,,,,,,,,,,,,,
1676663563.653537,1676663563.654932,115.000000,0.000000,4217.436035,4260.641113,4284.487305,4269.743652,4276.538574,4319.871582,4262.436035,4281.666504,4267.692383,4249.743652,4459.230957,4451.794922,4327.179688,4376.794922,2555.000000,4.000000,79.000000,,,,0.000000,4.000000,4.000000,4.000000,4.000000,4.000000,4.000000,4.000000,4.000000,4.000000,4.000000,4.000000,4.000000,4.000000,4.000000,100.000000,,,,,,,,,,,,,,,,,,,,,,,,,,,,,,,,,,,,,,,,,,,,,,,,,,,,,,,,,,,,,,,,,,,,,,,,,,,,,,,,,,,,,,
1676663563.661345,1676663563.662741,116.000000,0.000000,4217.563965,4256.666504,4288.333496,4252.307617,4276.282227,4326.538574,4267.563965,4280.769043,4265.128418,4237.563965,4459.230957,4455.512695,4313.333496,4377.436035,2316.000000,4.000000,79.000000,,,,0.000000,4.000000,4.000000,4.000000,4.000000,4.000000,4.000000,4.000000,4.000000,4.000000,4.000000,4.000000,4.000000,4.000000,4.000000,100.000000,,,,,,,,,,,,,,,,,,,,,,,,,,,,,,,,,,,,,,,,,,,,,,,,,,,,,,,,,,,,,,,,,,,,,,,,,,,,,,,,,,,,,,
1676663563.669154,1676663563.670449,117.000000,0.000000,4220.512695,4255.000000,4289.615234,4275.000000,4279.230957,4327.051270,4266.410156,4279.743652,4265.000000,4237.436035,4459.230957,4459.230957,4318.717773,4378.461426,2571.000000,4.000000,79.000000,,,,0.000000,4.000000,4.000000,4.000000,4.000000,4.000000,4.000000,4.000000,4.000000,4.000000,4.000000,4.000000,4.000000,4.000000,4.000000,100.000000,,,,,,,,,,,,,,,,,17.746918,2.370309,1.783770,0.362197,0.620672,4.069056,1.455460,0.698290,0.539152,1.910211,2.121162,0.785846,0.881389,0.466933,1.693872,2.299496,1.608106,0.698211,1.197038,3.615190,0.893844,0.514437,0.800303,0.255575,0.542051,1.756388,0.382762,0.507359,0.254276,0.275159,1.296779,0.666939,0.417520,0.229599,0.469184,0.791478,0.740091,0.285707,0.187156,0.294304,0.708140,1.285673,0.620980,0.435123,0.786705,0.984430,1.295108,0.641964,0.326380,0.831186,2.718286,2.132400,0.512000,0.952011,3.551452,1.951062,1.170721,0.834954,0.514741,1.533676,0.899810,1.053935,0.868863,0.784117,1.868278,2.363207,1.011841,1.055285,0.678446,1.371687
1676663563.676962,1676663563.678257,118.000000,0.000000,4211.666504,4244.615234,4276.282227,4287.948730,4278.205078,4324.615234,4262.436035,4279.871582,4265.641113,4250.641113,4459.102539,4443.077148,4323.589844,4368.589844,2309.000000,4.000000,79.000000,,,,0.000000,4.000000,4.000000,4.000000,4.000000,4.000000,4.000000,4.000000,4.000000,4.000000,4.000000,4.000000,4.000000,4.000000,4.000000,100.000000,,,,,,,,,,,,,,,,,,,,,,,,,,,,,,,,,,,,,,,,,,,,,,,,,,,,,,,,,,,,,,,,,,,,,,,,,,,,,,,,,,,,,,
1676663563.684770,1676663563.685965,119.000000,0.000000,4214.487305,4251.025879,4274.615234,4275.897461,4273.974121,4325.512695,4264.230957,4278.333496,4265.256348,4252.820313,4462.563965,4438.333496,4321.922852,4369.358887,2555.000000,4.000000,79.000000,,,,0.000000,4.000000,4.000000,4.000000,4.000000,4.000000,4.000000,4.000000,4.000000,4.000000,4.000000,4.000000,4.000000,4.000000,4.000000,100.000000,,,,,,,,,,,,,,,,,,,,,,,,,,,,,,,,,,,,,,,,,,,,,,,,,,,,,,,,,,,,,,,,,,,,,,,,,,,,,,,,,,,,,,
1676663563.692579,1676663563.693874,120.000000,0.000000,4234.743652,4268.589844,4294.487305,4275.897461,4272.820313,4326.922852,4270.641113,4279.615234,4266.025879,4249.230957,4458.974121,4464.487305,4326.666504,4390.897461,2316.000000,4.000000,79.000000,,,,0.000000,4.000000,4.000000,4.000000,4.000000,4.000000,4.000000,4.000000,4.000000,4.000000,4.000000,4.000000,4.000000,4.000000,4.000000,100.000000,,,,,,,,,,,,,,,,,,,,,,,,,,,,,,,,,,,,,,,,,,,,,,,,,,,,,,,,,,,,,,,,,,,,,,,,,,,,,,,,,,,,,,
1676663563.700387,1676663563.701682,121.000000,0.000000,4238.717773,4257.307617,4290.769043,4284.230957,4276.666504,4326.153809,4272.179688,4282.563965,4265.256348,4248.333496,4456.282227,4465.256348,4321.410156,4391.794922,2571.000000,4.000000,79.000000,,,,0.000000,4.000000,4.000000,4.000000,4.000000,4.000000,4.000000,4.000000,4.000000,4.000000,4.000000,4.000000,4.000000,4.000000,4.000000,100.000000,,,,,,,,,,,,,,,,,,,,,,,,,,,,,,,,,,,,,,,,,,,,,,,,,,,,,,,,,,,,,,,,,,,,,,,,,,,,,,,,,,,,,,
1676663563.708195,1676663563.709590,122.000000,0.000000,4234.358887,4246.794922,4272.436035,4278.205078,4281.410156,4324.358887,4273.077148,4282.820313,4264.615234,4246.025879,4469.358887,4446.922852,4313.717773,4373.461426,2309.000000,4.000000,79.000000,,,,0.000000,4.000000,4.000000,4.000000,4.000000,4.000000,4.000000,4.000000,4.000000,4.000000,4.000000,4.000000,4.000000,4.000000,4.000000,100.000000,,,,,,,,,,,,,,,,,,,,,,,,,,,,,,,,,,,,,,,,,,,,,,,,,,,,,,,,,,,,,,,,,,,,,,,,,,,,,,,,,,,,,,
1676663563.716004,1676663563.717399,123.000000,0.000000,4246.922852,4265.641113,4286.794922,4272.436035,4279.871582,4326.922852,4277.307617,4281.666504,4265.897461,4247.563965,4476.410156,4461.666504,4324.615234,4384.615234,2555.000000,4.000000,79.000000,,,,0.000000,4.000000,4.000000,4.000000,4.000000,4.000000,4.000000,4.000000,4.000000,4.000000,4.000000,4.000000,4.000000,4.000000,4.000000,100.000000,,,,,,,,,,,,,,,,,,,,,,,,,,,,,,,,,,,,,,,,,,,,,,,,,,,,,,,,,,,,,,,,,,,,,,,,,,,,,,,,,,,,,,
1676663563.723812,1676663563.725207,124.000000,0.000000,4252.948730,4267.051270,4299.871582,4279.358887,4276.410156,4328.461426,4273.846191,4284.230957,4265.641113,4251.666504,4464.871582,4475.000000,4330.384766,4402.179688,2316.000000,4.000000,79.000000,,,,0.000000,4.000000,4.000000,4.000000,4.000000,4.000000,4.000000,4.000000,4.000000,4.000000,4.000000,4.000000,4.000000,4.000000,4.000000,100.000000,,,,,,,,,,,,,,,,,,,,,,,,,,,,,,,,,,,,,,,,,,,,,,,,,,,,,,,,,,,,,,,,,,,,,,,,,,,,,,,,,,,,,,
1676663563.731620,1676663563.732916,125.000000,0.000000,4241.153809,4247.436035,4282.563965,4286.922852,4280.000000,4323.589844,4266.666504,4288.589844,4266.666504,4249.871582,4464.230957,4459.487305,4323.974121,4390.256348,2571.000000,4.000000,79.000000,,,,0.000000,4.000000,4.000000,4.000000,4.000000,4.000000,4.000000,4.000000,4.000000,4.000000,4.000000,4.000000,4.000000,4.000000,4.000000,100.000000,,,,,,,,,,,,,,,,,,,,,,,,,,,,,,,,,,,,,,,,,,,,,,,,,,,,,,,,,,,,,,,,,,,,,,,,,,,,,,,,,,,,,,
1676663563.739429,1676663563.740724,126.000000,0.000000,4243.333496,4247.307617,4272.563965,4290.000000,4278.333496,4323.717773,4270.256348,4287.563965,4270.384766,4248.846191,4474.102539,4456.794922,4328.205078,4379.358887,2309.000000,4.000000,79.000000,,,,0.000000,4.000000,4.000000,4.000000,4.000000,4.000000,4.000000,4.000000,4.000000,4.000000,4.000000,4.000000,4.000000,4.000000,4.000000,100.000000,,,,,,,,,,,,,,,,,,,,,,,,,,,,,,,,,,,,,,,,,,,,,,,,,,,,,,,,,,,,,,,,,,,,,,,,,,,,,,,,,,,,,,
1676663563.747237,1676663563.748432,127.000000,0.000000,4249.358887,4250.769043,4283.717773,4278.205078,4269.871582,4328.205078,4271.922852,4279.487305,4268.205078,4248.461426,4468.205078,4463.077148,4329.230957,4384.871582,79.000000,4.000000,79.000000,,,,0.000000,4.000000,4.000000,4.000000,4.000000,4.000000,4.000000,4.000000,4.000000,4.000000,4.000000,4.000000,4.000000,4.000000,4.000000,100.000000,,,,,,,,,,,,,,,,,,,,,,,,,,,,,,,,,,,,,,,,,,,,,,,,,,,,,,,,,,,,,,,,,,,,,,,,,,,,,,,,,,,,,,
1676663563.755046,1676663563.756240,0.000000,0.000000,4233.077148,4234.230957,4281.794922,4268.717773,4272.051270,4326.794922,4262.436035,4274.743652,4258.974121,4243.974121,4462.179688,4449.871582,4315.512695,4378.333496,2448.000000,4.000000,79.000000,,,,0.000000,4.000000,4.000000,4.000000,4.000000,4.000000,4.000000,4.000000,4.000000,4.000000,4.000000,4.000000,4.000000,4.000000,4.000000,100.000000,,,,,,,,,,,,,,,,,,,,,,,,,,,,,,,,,,,,,,,,,,,,,,,,,,,,,,,,,,,,,,,,,,,,,,,,,,,,,,,,,,,,,,
1676663563.762854,1676663563.763949,1.000000,0.000000,4218.205078,4227.948730,4271.153809,4274.358887,4278.974121,4325.769043,4259.230957,4278.589844,4257.307617,4243.589844,4453.077148,4446.410156,4307.051270,4368.077148,2176.000000,4.000000,79.000000,,,,0.000000,4.000000,4.000000,4.000000,4.000000,4.000000,4.000000,4.000000,4.000000,4.000000,4.000000,4.000000,4.000000,4.000000,4.000000,100.000000,,,,,,,,,,,,,,,,,,,,,,,,,,,,,,,,,,,,,,,,,,,,,,,,,,,,,,,,,,,,,,,,,,,,,,,,,,,,,,,,,,,,,,
1676663563.770662,1676663563.771757,2.000000,0.000000,4224.743652,4240.769043,4276.153809,4272.051270,4277.820313,4333.077148,4263.589844,4279.743652,4265.641113,4252.436035,4443.717773,4459.102539,4313.333496,4374.102539,1793.000000,4.000000,79.000000,,,,0.000000,4.000000,4.000000,4.000000,4.000000,4.000000,4.000000,4.000000,4.000000,4.000000,4.000000,4.000000,4.000000,4.000000,4.000000,100.000000,,,,,,,,,,,,,,,,,,,,,,,,,,,,,,,,,,,,,,,,,,,,,,,,,,,,,,,,,,,,,,,,,,,,,,,,,,,,,,,,,,,,,,
1676663563.778471,1676663563.779465,3.000000,0.000000,4238.589844,4247.820313,4291.538574,4275.128418,4278.717773,4341.282227,4268.974121,4276.153809,4268.461426,4264.358887,4464.743652,4468.846191,4331.410156,4390.000000,2196.000000,4.000000,79.000000,,,,0.000000,4.000000,4.000000,4.000000,4.000000,4.000000,4.000000,4.000000,4.000000,4.000000,4.000000,4.000000,4.000000,4.000000,4.000000,100.000000,,,,,,,,,,,,,,,,,,,,,,,,,,,,,,,,,,,,,,,,,,,,,,,,,,,,,,,,,,,,,,,,,,,,,,,,,,,,,,,,,,,,,,
1676663563.786279,1676663563.787273,4.000000,0.000000,4246.282227,4247.692383,4298.589844,4295.256348,4282.179688,4338.846191,4273.974121,4280.769043,4265.769043,4265.256348,4476.666504,4472.563965,4338.333496,4398.077148,1770.000000,4.000000,79.000000,,,,0.000000,4.000000,4.000000,4.000000,4.000000,4.000000,4.000000,4.000000,4.000000,4.000000,4.000000,4.000000,4.000000,4.000000,4.000000,100.000000,,,,,,,,,,,,,,,,,,,,,,,,,,,,,,,,,,,,,,,,,,,,,,,,,,,,,,,,,,,,,,,,,,,,,,,,,,,,,,,,,,,,,,
1676663563.794087,1676663563.794982,5.000000,0.000000,4256.922852,4252.179688,4293.461426,4305.128418,4277.179688,4333.717773,4277.820313,4290.641113,4270.512695,4250.769043,4476.282227,4474.871582,4331.538574,4400.897461,2309.000000,4.000000,79.000000,,,,0.000000,4.000000,4.000000,4.000000,4.000000,4.000000,4.000000,4.000000,4.000000,4.000000,4.000000,4.000000,4.000000,4.000000,4.000000,100.000000,1.000000,41.666668,4.000000,4.000000,3.000000,3.000000,4.000000,3.000000,4.000000,4.000000,4.000000,1.000000,1.000000,4.000000,4.000000,4.000000,18.505619,3.486994,2.044799,0.393983,0.549156,3.410191,1.390249,0.687296,0.593251,1.786007,1.705130,1.007859,1.011889,0.517227,1.431562,2.275226,1.554882,0.730054,1.246312,3.677206,0.848396,0.412163,0.774097,0.263112,0.489201,1.683292,0.488490,0.544131,0.236723,0.240025,1.376412,0.772489,0.503426,0.243295,0.423942,0.985881,0.897909,0.271312,0.169736,0.272296,0.793219,1.887291,0.752861,0.427968,0.700231,0.841693,1.289868,0.732892,0.293205,0.805175,2.310478,2.249068,0.551632,0.736231,3.288526,1.886168,1.471779,0.915136,0.535888,1.308397,0.842399,1.212148,0.875941,0.661977,1.724106,2.419979,1.265054,1.031956,0.694975,1.135468
1676663563.801896,1676663563.802890,6.000000,0.000000,4273.846191,4252.436035,4294.230957,4291.666504,4273.717773,4334.615234,4279.358887,4290.256348,4274.743652,4247.563965,4488.077148,4477.307617,4330.256348,4409.230957,1967.000000,4.000000,79.000000,,,,0.000000,4.000000,4.000000,4.000000,4.000000,4.000000,4.000000,4.000000,4.000000,4.000000,4.000000,4.000000,4.000000,4.000000,4.000000,100.000000,,,,,,,,,,,,,,,,,,,,,,,,,,,,,,,,,,,,,,,,,,,,,,,,,,,,,,,,,,,,,,,,,,,,,,,,,,,,,,,,,,,,,,
1676663563.809704,1676663563.810699,7.000000,0.000000,4280.384766,4246.666504,4301.794922,4287.820313,4278.717773,4333.974121,4279.230957,4283.974121,4266.410156,4257.051270,4476.025879,4480.384766,4326.922852,4408.717773,1541.000000,4.000000,79.000000,,,,0.000000,4.000000,4.000000,4.000000,4.000000,4.000000,4.000000,4.000000,4.000000,4.000000,4.000000,4.000000,4.000000,4.000000,4.000000,100.000000,,,,,,,,,,,,,,,,,,,,,,,,,,,,,,,,,,,,,,,,,,,,,,,,,,,,,,,,,,,,,,,,,,,,,,,,,,,,,,,,,,,,,,
1676663563.817512,1676663563.818607,8.000000,0.000000,4269.871582,4245.128418,4296.666504,4293.974121,4280.000000,4328.974121,4280.000000,4283.077148,4260.512695,4256.666504,4453.333496,4475.384766,4322.436035,4398.589844,2391.000000,4.000000,79.000000,,,,0.000000,4.000000,4.000000,4.000000,4.000000,4.000000,4.000000,4.000000,4.000000,4.000000,4.000000,4.000000,4.000000,4.000000,4.000000,100.000000,,,,,,,,,,,,,,,,,,,,,,,,,,,,,,,,,,,,,,,,,,,,,,,,,,,,,,,,,,,,,,,,,,,,,,,,,,,,,,,,,,,,,,
1676663563.825321,1676663563.826415,9.000000,0.000000,4263.461426,4245.897461,4280.256348,4292.563965,4276.666504,4323.077148,4277.692383,4280.512695,4260.769043,4245.769043,4459.743652,4461.538574,4328.333496,4392.179688,2348.000000,4.000000,79.000000,,,,0.000000,4.000000,4.000000,4.000000,4.000000,4.000000,4.000000,4.000000,4.000000,4.000000,4.000000,4.000000,4.000000,4.000000,4.000000,100.000000,,,,,,,,,,,,,,,,,,,,,,,,,,,,,,,,,,,,,,,,,,,,,,,,,,,,,,,,,,,,,,,,,,,,,,,,,,,,,,,,,,,,,,
1676663563.833129,1676663563.834323,10.000000,0.000000,4275.512695,4248.974121,4278.589844,4300.641113,4276.410156,4321.794922,4275.641113,4278.846191,4259.230957,4239.230957,4470.000000,4462.692383,4330.641113,4394.358887,2341.000000,4.000000,79.000000,,,,0.000000,4.000000,4.000000,4.000000,4.000000,4.000000,4.000000,4.000000,4.000000,4.000000,4.000000,4.000000,4.000000,4.000000,4.000000,100.000000,,,,,,,,,,,,,,,,,,,,,,,,,,,,,,,,,,,,,,,,,,,,,,,,,,,,,,,,,,,,,,,,,,,,,,,,,,,,,,,,,,,,,,
1676663563.840938,1676663563.842131,11.000000,0.000000,4283.589844,4250.641113,4295.641113,4286.282227,4280.641113,4324.743652,4280.641113,4285.897461,4261.666504,4242.179688,4469.358887,4475.897461,4323.205078,4401.538574,2566.000000,4.000000,79.000000,,,,0.000000,4.000000,4.000000,4.000000,4.000000,4.000000,4.000000,4.000000,4.000000,4.000000,4.000000,4.000000,4.000000,4.000000,4.000000,100.000000,,,,,,,,,,,,,,,,,,,,,,,,,,,,,,,,,,,,,,,,,,,,,,,,,,,,,,,,,,,,,,,,,,,,,,,,,,,,,,,,,,,,,,
1676663563.848746,1676663563.850039,12.000000,0.000000,4277.051270,4248.333496,4299.358887,4276.538574,4281.410156,4328.846191,4285.000000,4285.897461,4264.615234,4245.512695,4472.307617,4476.794922,4323.333496,4404.230957,2384.000000,4.000000,79.000000,,,,0.000000,4.000000,4.000000,4.000000,4.000000,4.000000,4.000000,4.000000,4.000000,4.000000,4.000000,4.000000,4.000000,4.000000,4.000000,100.000000,,,,,,,,,,,,,,,,,,,,,,,,,,,,,,,,,,,,,,,,,,,,,,,,,,,,,,,,,,,,,,,,,,,,,,,,,,,,,,,,,,,,,,
1676663563.856554,1676663563.857848,13.000000,0.000000,4279.743652,4247.436035,4292.307617,4304.871582,4277.820313,4327.051270,4281.282227,4280.384766,4258.846191,4246.025879,4466.282227,4470.769043,4325.256348,4401.282227,2545.000000,4.000000,79.000000,,,,0.000000,4.000000,4.000000,4.000000,4.000000,4.000000,4.000000,4.000000,4.000000,4.000000,4.000000,4.000000,4.000000,4.000000,4.000000,100.000000,,,,,,,,,,,,,,,,,,,,,,,,,,,,,,,,,,,,,,,,,,,,,,,,,,,,,,,,,,,,,,,,,,,,,,,,,,,,,,,,,,,,,,
1676663563.864363,1676663563.865556,14.000000,0.000000,4292.179688,4252.307617,4304.743652,4325.384766,4277.051270,4318.205078,4279.615234,4284.615234,4258.589844,4251.025879,4466.922852,4476.538574,4329.102539,4407.307617,2341.000000,4.000000,79.000000,,,,0.000000,4.000000,4.000000,4.000000,4.000000,4.000000,4.000000,4.000000,4.000000,4.000000,4.000000,4.000000,4.000000,4.000000,4.000000,100.000000,,,,,,,,,,,,,,,,,,,,,,,,,,,,,,,,,,,,,,,,,,,,,,,,,,,,,,,,,,,,,,,,,,,,,,,,,,,,,,,,,,,,,,
1676663563.872171,1676663563.873364,15.000000,0.000000,4290.769043,4255.384766,4307.563965,4319.102539,4277.948730,4312.436035,4282.820313,4290.128418,4264.487305,4250.512695,4476.538574,4479.743652,4330.769043,4414.487305,2566.000000,4.000000,79.000000,,,,0.000000,4.000000,4.000000,4.000000,4.000000,4.000000,4.000000,4.000000,4.000000,4.000000,4.000000,4.000000,4.000000,4.000000,4.000000,100.000000,,,,,,,,,,,,,,,,,,,,,,,,,,,,,,,,,,,,,,,,,,,,,,,,,,,,,,,,,,,,,,,,,,,,,,,,,,,,,,,,,,,,,,
1676663563.879979,1676663563.881072,16.000000,0.000000,4283.846191,4250.512695,4284.871582,4303.461426,4274.615234,4312.563965,4281.025879,4289.102539,4262.563965,4237.307617,4457.948730,4472.563965,4319.358887,4406.410156,0.000000,4.000000,79.000000,,,,0.000000,4.000000,4.000000,4.000000,4.000000,4.000000,4.000000,4.000000,4.000000,4.000000,4.000000,4.000000,4.000000,4.000000,4.000000,100.000000,,,,,,,,,,,,,,,,,,,,,,,,,,,,,,,,,,,,,,,,,,,,,,,,,,,,,,,,,,,,,,,,,,,,,,,,,,,,,,,,,,,,,,
1676663563.887788,1676663563.888881,17.000000,0.000000,4287.051270,4246.538574,4280.256348,4301.025879,4274.102539,4314.487305,4278.717773,4288.717773,4259.358887,4235.000000,4457.563965,4472.948730,4320.641113,4400.769043,0.000000,4.000000,79.000000,,,,0.000000,4.000000,4.000000,4.000000,4.000000,4.000000,4.000000,4.000000,4.000000,4.000000,4.000000,4.000000,4.000000,4.000000,4.000000,100.000000,,,,,,,,,,,,,,,,,,,,,,,,,,,,,,,,,,,,,,,,,,,,,,,,,,,,,,,,,,,,,,,,,,,,,,,,,,,,,,,,,,,,,,
1676663563.895596,1676663563.896589,18.000000,0.000000,4292.820313,4250.128418,4292.820313,4309.615234,4280.256348,4312.436035,4280.128418,4288.461426,4261.538574,4247.948730,4488.333496,4475.128418,4336.666504,4407.179688,0.000000,4.000000,79.000000,,,,0.000000,4.000000,4.000000,4.000000,4.000000,4.000000,4.000000,4.000000,4.000000,4.000000,4.000000,4.000000,4.000000,4.000000,4.000000,100.000000,,,,,,,,,,,,,,,,,,,,,,,,,,,,,,,,,,,,,,,,,,,,,,,,,,,,,,,,,,,,,,,,,,,,,,,,,,,,,,,,,,,,,,
1676663563.903404,1676663563.904397,19.000000,0.000000,4294.230957,4249.487305,4300.128418,4295.000000,4276.025879,4307.051270,4279.230957,4287.820313,4261.666504,4247.051270,4479.358887,4475.769043,4331.922852,4411.410156,0.000000,4.000000,79.000000,,,,0.000000,4.000000,4.000000,4.000000,4.000000,4.000000,4.000000,4.000000,4.000000,4.000000,4.000000,4.000000,4.000000,4.000000,4.000000,100.000000,,,,,,,,,,,,,,,,,,,,,,,,,,,,,,,,,,,,,,,,,,,,,,,,,,,,,,,,,,,,,,,,,,,,,,,,,,,,,,,,,,,,,,
1676663563.911213,1676663563.912105,20.000000,0.000000,4295.256348,4250.000000,4304.743652,4285.769043,4266.153809,4307.051270,4279.230957,4291.282227,4261.922852,4242.179688,4456.025879,4481.794922,4320.384766,4412.692383,0.000000,4.000000,79.000000,,,,0.000000,4.000000,4.000000,4.000000,4.000000,4.000000,4.000000,4.000000,4.000000,4.000000,4.000000,4.000000,4.000000,4.000000,4.000000,100.000000,,,,,,,,,,,,,,,,,,,,,,,,,,,,,,,,,,,,,,,,,,,,,,,,,,,,,,,,,,,,,,,,,,,,,,,,,,,,,,,,,,,,,,
1676663563.919021,1676663563.919914,21.000000,0.000000,4297.051270,4255.512695,4308.205078,4323.205078,4270.641113,4311.922852,4281.666504,4288.974121,4262.692383,4249.487305,4470.769043,4489.102539,4327.563965,4414.487305,0.000000,4.000000,79.000000,,,,0.000000,4.000000,4.000000,4.000000,4.000000,4.000000,4.000000,4.000000,4.000000,4.000000,4.000000,4.000000,4.000000,4.000000,4.000000,100.000000,,,,,,,,,,,,,,,,,21.962561,5.267167,2.397599,0.443587,0.476606,2.594723,1.270737,0.729711,0.606685,1.555961,1.320045,1.249146,1.267983,0.569646,1.147147,2.178545,1.510672,0.737660,1.264763,3.423311,0.744611,0.330482,0.667219,0.245786,0.395046,1.918682,0.675938,0.553267,0.219097,0.198101,1.643495,0.930753,0.656682,0.261896,0.356279,1.350298,1.167054,0.352574,0.150448,0.236036,0.934696,2.699906,0.964604,0.423941,0.574993,0.735003,1.264291,0.861593,0.283197,0.728249,1.868631,2.250721,0.616829,0.661088,2.839143,1.985450,1.876199,1.023355,0.536046,1.054144,0.841596,1.363496,0.887001,0.571943,1.450525,2.710712,1.618608,1.051594,0.687345,0.897630
1676663563.926829,1676663563.927622,22.000000,0.000000,4298.077148,4253.205078,4308.974121,4341.410156,4282.307617,4309.743652,4281.538574,4285.384766,4262.820313,4251.538574,4484.358887,4488.077148,4337.179688,4414.871582,0.000000,4.000000,79.000000,,,,0.000000,4.000000,4.000000,4.000000,4.000000,4.000000,4.000000,4.000000,4.000000,4.000000,4.000000,4.000000,4.000000,4.000000,4.000000,100.000000,,,,,,,,,,,,,,,,,,,,,,,,,,,,,,,,,,,,,,,,,,,,,,,,,,,,,,,,,,,,,,,,,,,,,,,,,,,,,,,,,,,,,,
1676663563.934638,1676663563.935430,23.000000,0.000000,4300.384766,4255.512695,4311.666504,4310.512695,4281.922852,4299.487305,4280.512695,4287.436035,4263.589844,4248.974121,4478.077148,4483.077148,4339.871582,4416.794922,0.000000,4.000000,79.000000,,,,0.000000,4.000000,4.000000,4.000000,4.000000,4.000000,4.000000,4.000000,4.000000,4.000000,4.000000,4.000000,4.000000,4.000000,4.000000,100.000000,,,,,,,,,,,,,,,,,,,,,,,,,,,,,,,,,,,,,,,,,,,,,,,,,,,,,,,,,,,,,,,,,,,,,,,,,,,,,,,,,,,,,,
1676663563.942446,1676663563.943138,24.000000,0.000000,4297.051270,4257.692383,4298.846191,4304.615234,4270.641113,4294.487305,4278.974121,4281.922852,4257.436035,4248.974121,4472.563965,4475.641113,4337.307617,4413.333496,0.000000,4.000000,79.000000,,,,0.000000,4.000000,4.000000,4.000000,4.000000,4.000000,4.000000,4.000000,4.000000,4.000000,4.000000,4.000000,4.000000,4.000000,4.000000,100.000000,,,,,,,,,,,,,,,,,,,,,,,,,,,,,,,,,,,,,,,,,,,,,,,,,,,,,,,,,,,,,,,,,,,,,,,,,,,,,,,,,,,,,,
1676663563.950255,1676663563.950947,25.000000,0.000000,4288.077148,4241.538574,4279.871582,4310.641113,4266.025879,4293.077148,4276.153809,4277.563965,4246.153809,4238.077148,4458.589844,4467.307617,4325.256348,4402.820313,0.000000,4.000000,79.000000,,,,0.000000,4.000000,4.000000,4.000000,4.000000,4.000000,4.000000,4.000000,4.000000,4.000000,4.000000,4.000000,4.000000,4.000000,4.000000,100.000000,,,,,,,,,,,,,,,,,,,,,,,,,,,,,,,,,,,,,,,,,,,,,,,,,,,,,,,,,,,,,,,,,,,,,,,,,,,,,,,,,,,,,,
1676663563.958063,1676663563.958655,26.000000,0.000000,4286.538574,4235.384766,4287.948730,4300.128418,4271.666504,4291.025879,4281.153809,4288.717773,4249.230957,4231.153809,4453.461426,4470.512695,4319.230957,4402.563965,0.000000,4.000000,79.000000,,,,0.000000,4.000000,4.000000,4.000000,4.000000,4.000000,4.000000,4.000000,4.000000,4.000000,4.000000,4.000000,4.000000,4.000000,4.000000,100.000000,,,,,,,,,,,,,,,,,,,,,,,,,,,,,,,,,,,,,,,,,,,,,,,,,,,,,,,,,,,,,,,,,,,,,,,,,,,,,,,,,,,,,,
1676663563.965871,1676663563.966463,27.000000,0.000000,4291.538574,4249.615234,4295.641113,4311.025879,4275.769043,4295.641113,4285.897461,4295.512695,4262.948730,4243.333496,4474.871582,4473.205078,4321.282227,4402.563965,0.000000,4.000000,79.000000,,,,0.000000,4.000000,4.000000,4.000000,4.000000,4.000000,4.000000,4.000000,4.000000,4.000000,4.000000,4.000000,4.000000,4.000000,4.000000,100.000000,,,,,,,,,,,,,,,,,,,,,,,,,,,,,,,,,,,,,,,,,,,,,,,,,,,,,,,,,,,,,,,,,,,,,,,,,,,,,,,,,,,,,,
1676663563.973679,1676663563.974171,28.000000,0.000000,4295.897461,4252.692383,4291.666504,4313.333496,4269.230957,4295.897461,4282.563965,4289.487305,4265.897461,4251.153809,4483.974121,4473.205078,4325.769043,4397.692383,0.000000,4.000000,79.000000,,,,0.000000,4.000000,4.000000,4.000000,4.000000,4.000000,4.000000,4.000000,4.000000,4.000000,4.000000,4.000000,4.000000,4.000000,4.000000,100.000000,,,,,,,,,,,,,,,,,,,,,,,,,,,,,,,,,,,,,,,,,,,,,,,,,,,,,,,,,,,,,,,,,,,,,,,,,,,,,,,,,,,,,,
1676663563.981488,1676663563.982080,29.000000,0.000000,4295.384766,4247.820313,4300.897461,4303.333496,4264.871582,4286.153809,4283.846191,4290.897461,4264.358887,4241.922852,4472.307617,4482.563965,4331.282227,4404.102539,0.000000,4.000000,79.000000,,,,0.000000,4.000000,4.000000,4.000000,4.000000,4.000000,4.000000,4.000000,4.000000,4.000000,4.000000,4.000000,4.000000,4.000000,4.000000,100.000000,,,,,,,,,,,,,,,,,,,,,,,,,,,,,,,,,,,,,,,,,,,,,,,,,,,,,,,,,,,,,,,,,,,,,,,,,,,,,,,,,,,,,,
1676663563.989296,1676663563.989888,30.000000,0.000000,4288.205078,4243.846191,4301.153809,4310.128418,4266.410156,4279.230957,4286.410156,4292.563965,4268.205078,4241.922852,4464.615234,4483.974121,4329.487305,4408.333496,0.000000,4.000000,79.000000,,,,0.000000,4.000000,4.000000,4.000000,4.000000,4.000000,4.000000,4.000000,4.000000,4.000000,4.000000,4.000000,4.000000,4.000000,4.000000,100.000000,,,,,,,,,,,,,,,,,,,,,,,,,,,,,,,,,,,,,,,,,,,,,,,,,,,,,,,,,,,,,,,,,,,,,,,,,,,,,,,,,,,,,,
1676663563.997105,1676663563.997797,31.000000,0.000000,4285.769043,4235.128418,4283.717773,4307.307617,4264.358887,4277.563965,4280.512695,4283.205078,4264.871582,4252.948730,4461.666504,4470.897461,4322.179688,4393.974121,0.000000,4.000000,79.000000,,,,0.000000,4.000000,4.000000,4.000000,4.000000,4.000000,4.000000,4.000000,4.000000,4.000000,4.000000,4.000000,4.000000,4.000000,4.000000,100.000000,,,,,,,,,,,,,,,,,,,,,,,,,,,,,,,,,,,,,,,,,,,,,,,,,,,,,,,,,,,,,,,,,,,,,,,,,,,,,,,,,,,,,,
1676663564.004913,1676663564.005605,32.000000,0.000000,4292.436035,4239.487305,4281.410156,4307.179688,4271.282227,4276.410156,4277.307617,4277.948730,4250.128418,4247.563965,4463.077148,4469.615234,4317.820313,4391.282227,0.000000,4.000000,79.000000,,,,0.000000,4.000000,4.000000,4.000000,4.000000,4.000000,4.000000,4.000000,4.000000,4.000000,4.000000,4.000000,4.000000,4.000000,4.000000,100.000000,,,,,,,,,,,,,,,,,,,,,,,,,,,,,,,,,,,,,,,,,,,,,,,,,,,,,,,,,,,,,,,,,,,,,,,,,,,,,,,,,,,,,,
1676663564.012721,1676663564.013513,33.000000,0.000000,4297.948730,4249.743652,4300.384766,4316.794922,4280.897461,4277.563965,4281.794922,4282.436035,4246.410156,4238.205078,4475.512695,4483.974121,4326.794922,4413.077148,0.000000,4.000000,79.000000,,,,0.000000,4.000000,4.000000,4.000000,4.000000,4.000000,4.000000,4.000000,4.000000,4.000000,4.000000,4.000000,4.000000,4.000000,4.000000,100.000000,,,,,,,,,,,,,,,,,,,,,,,,,,,,,,,,,,,,,,,,,,,,,,,,,,,,,,,,,,,,,,,,,,,,,,,,,,,,,,,,,,,,,,
1676663564.020530,1676663564.021321,34.000000,0.000000,4295.897461,4257.948730,4306.025879,4316.538574,4276.153809,4276.794922,4283.077148,4282.948730,4259.871582,4245.512695,4485.384766,4483.077148,4343.333496,4420.512695,0.000000,4.000000,79.000000,,,,0.000000,4.000000,4.000000,4.000000,4.000000,4.000000,4.000000,4.000000,4.000000,4.000000,4.000000,4.000000,4.000000,4.000000,4.000000,100.000000,,,,,,,,,,,,,,,,,,,,,,,,,,,,,,,,,,,,,,,,,,,,,,,,,,,,,,,,,,,,,,,,,,,,,,,,,,,,,,,,,,,,,,
1676663564.028338,1676663564.029229,35.000000,0.000000,4294.871582,4262.948730,4297.563965,4312.436035,4272.051270,4269.358887,4280.769043,4281.025879,4261.153809,4250.384766,4485.000000,4471.794922,4346.153809,4403.077148,0.000000,4.000000,79.000000,,,,0.000000,4.000000,4.000000,4.000000,4.000000,4.000000,4.000000,4.000000,4.000000,4.000000,4.000000,4.000000,4.000000,4.000000,4.000000,100.000000,,,,,,,,,,,,,,,,,,,,,,,,,,,,,,,,,,,,,,,,,,,,,,,,,,,,,,,,,,,,,,,,,,,,,,,,,,,,,,,,,,,,,,
1676663564.036146,1676663564.037038,36.000000,0.000000,4294.358887,4252.820313,4292.563965,4307.820313,4279.487305,4263.846191,4279.358887,4282.307617,4249.871582,4239.358887,4465.897461,4470.512695,4331.666504,4399.102539,0.000000,4.000000,79.000000,,,,0.000000,4.000000,4.000000,4.000000,4.000000,4.000000,4.000000,4.000000,4.000000,4.000000,4.000000,4.000000,4.000000,4.000000,4.000000,100.000000,,,,,,,,,,,,,,,,,,,,,,,,,,,,,,,,,,,,,,,,,,,,,,,,,,,,,,,,,,,,,,,,,,,,,,,,,,,,,,,,,,,,,,
1676663564.043955,1676663564.044746,37.000000,0.000000,4296.410156,4245.897461,4295.641113,4291.538574,4277.307617,4261.922852,4278.461426,4282.563965,4248.333496,4231.282227,4461.025879,4474.871582,4320.128418,4410.769043,0.000000,4.000000,79.000000,,,,0.000000,4.000000,4.000000,4.000000,4.000000,4.000000,4.000000,4.000000,4.000000,4.000000,4.000000,4.000000,4.000000,4.000000,4.000000,100.000000,,,,,,,,,,,,,,,,,29.731180,7.679999,2.827593,0.512696,0.429041,1.832636,1.138097,0.808786,0.570754,1.289164,1.090934,1.479713,1.576247,0.604705,0.910837,2.095825,1.545360,0.733411,1.239966,2.923126,0.592064,0.269553,0.517226,0.209325,0.286404,2.253962,0.896307,0.532652,0.205504,0.159613,2.128383,1.128381,0.833706,0.280330,0.284108,1.887009,1.466230,0.502396,0.131022,0.194641,1.090635,3.472267,1.187225,0.409657,0.449797,0.677647,1.194966,0.955002,0.301594,0.615335,1.623921,2.140178,0.680663,0.732821,2.317479,2.477459,2.305120,1.127507,0.510090,0.836101,0.988414,1.443393,0.868250,0.536063,1.123204,3.516807,2.036331,1.079652,0.649393,0.703077
1676663564.051763,1676663564.052554,38.000000,0.000000,4300.000000,4256.153809,4300.512695,4302.179688,4264.615234,4262.179688,4279.615234,4279.615234,4252.179688,4239.487305,4483.717773,4476.410156,4329.871582,4410.512695,0.000000,4.000000,79.000000,,,,0.000000,4.000000,4.000000,4.000000,4.000000,4.000000,4.000000,4.000000,4.000000,4.000000,4.000000,4.000000,4.000000,4.000000,4.000000,100.000000,,,,,,,,,,,,,,,,,,,,,,,,,,,,,,,,,,,,,,,,,,,,,,,,,,,,,,,,,,,,,,,,,,,,,,,,,,,,,,,,,,,,,,
1676663564.059571,1676663564.060262,39.000000,0.000000,4294.230957,4257.179688,4293.589844,4332.820313,4263.333496,4264.615234,4279.871582,4277.692383,4249.743652,4246.794922,4476.538574,4473.077148,4334.871582,4400.384766,0.000000,4.000000,79.000000,,,,0.000000,4.000000,4.000000,4.000000,4.000000,4.000000,4.000000,4.000000,4.000000,4.000000,4.000000,4.000000,4.000000,4.000000,4.000000,100.000000,,,,,,,,,,,,,,,,,,,,,,,,,,,,,,,,,,,,,,,,,,,,,,,,,,,,,,,,,,,,,,,,,,,,,,,,,,,,,,,,,,,,,,
1676663564.067380,1676663564.068071,40.000000,0.000000,4290.641113,4246.282227,4286.025879,4317.692383,4270.769043,4266.025879,4278.077148,4280.000000,4247.692383,4236.666504,4457.307617,4467.051270,4327.948730,4398.717773,0.000000,4.000000,79.000000,,,,0.000000,4.000000,4.000000,4.000000,4.000000,4.000000,4.000000,4.000000,4.000000,4.000000,4.000000,4.000000,4.000000,4.000000,4.000000,100.000000,,,,,,,,,,,,,,,,,,,,,,,,,,,,,,,,,,,,,,,,,,,,,,,,,,,,,,,,,,,,,,,,,,,,,,,,,,,,,,,,,,,,,,
1676663564.075188,1676663564.075779,41.000000,0.000000,4298.333496,4254.743652,4292.179688,4301.794922,4276.922852,4271.025879,4277.820313,4280.512695,4251.410156,4227.179688,4472.820313,4466.025879,4329.102539,4403.846191,0.000000,4.000000,79.000000,,,,0.000000,4.000000,4.000000,4.000000,4.000000,4.000000,4.000000,4.000000,4.000000,4.000000,4.000000,4.000000,4.000000,4.000000,4.000000,100.000000,,,,,,,,,,,,,,,,,,,,,,,,,,,,,,,,,,,,,,,,,,,,,,,,,,,,,,,,,,,,,,,,,,,,,,,,,,,,,,,,,,,,,,
1676663564.082996,1676663564.083587,42.000000,0.000000,4301.666504,4270.769043,4297.307617,4325.897461,4276.794922,4280.897461,4280.512695,4279.871582,4252.563965,4239.487305,4476.025879,4472.563965,4330.000000,4405.769043,0.000000,4.000000,79.000000,,,,0.000000,4.000000,4.000000,4.000000,4.000000,4.000000,4.000000,4.000000,4.000000,4.000000,4.000000,4.000000,4.000000,4.000000,4.000000,100.000000,,,,,,,,,,,,,,,,,,,,,,,,,,,,,,,,,,,,,,,,,,,,,,,,,,,,,,,,,,,,,,,,,,,,,,,,,,,,,,,,,,,,,,
1676663564.090805,1676663564.091296,43.000000,0.000000,4297.051270,4262.436035,4296.666504,4310.641113,4269.871582,4282.692383,4281.538574,4280.000000,4250.769043,4248.717773,4457.948730,4475.512695,4326.410156,4406.410156,0.000000,4.000000,79.000000,,,,0.000000,4.000000,4.000000,4.000000,4.000000,4.000000,4.000000,4.000000,4.000000,4.000000,4.000000,4.000000,4.000000,4.000000,4.000000,100.000000,,,,,,,,,,,,,,,,,,,,,,,,,,,,,,,,,,,,,,,,,,,,,,,,,,,,,,,,,,,,,,,,,,,,,,,,,,,,,,,,,,,,,,
1676663564.098613,1676663564.099104,44.000000,0.000000,4295.641113,4245.256348,4298.974121,4281.025879,4271.410156,4275.128418,4279.358887,4280.641113,4249.487305,4240.000000,4470.384766,4472.436035,4327.436035,4407.948730,0.000000,4.000000,79.000000,,,,0.000000,4.000000,4.000000,4.000000,4.000000,4.000000,4.000000,4.000000,4.000000,4.000000,4.000000,4.000000,4.000000,4.000000,4.000000,100.000000,,,,,,,,,,,,,,,,,,,,,,,,,,,,,,,,,,,,,,,,,,,,,,,,,,,,,,,,,,,,,,,,,,,,,,,,,,,,,,,,,,,,,,
1676663564.106422,1676663564.106812,45.000000,0.000000,4298.846191,4256.282227,4297.051270,4316.153809,4277.948730,4274.230957,4280.512695,4279.230957,4248.974121,4241.153809,4486.794922,4473.333496,4332.948730,4409.871582,0.000000,4.000000,79.000000,,,,0.000000,4.000000,4.000000,4.000000,4.000000,4.000000,4.000000,4.000000,4.000000,4.000000,4.000000,4.000000,4.000000,4.000000,4.000000,100.000000,,,,,,,,,,,,,,,,,,,,,,,,,,,,,,,,,,,,,,,,,,,,,,,,,,,,,,,,,,,,,,,,,,,,,,,,,,,,,,,,,,,,,,
1676663564.114230,1676663564.114620,46.000000,0.000000,4296.538574,4268.974121,4285.384766,4338.205078,4271.282227,4273.333496,4278.717773,4278.461426,4249.615234,4244.743652,4462.692383,4471.153809,4330.256348,4408.846191,0.000000,4.000000,79.000000,,,,0.000000,4.000000,4.000000,4.000000,4.000000,4.000000,4.000000,4.000000,4.000000,4.000000,4.000000,4.000000,4.000000,4.000000,4.000000,100.000000,,,,,,,,,,,,,,,,,,,,,,,,,,,,,,,,,,,,,,,,,,,,,,,,,,,,,,,,,,,,,,,,,,,,,,,,,,,,,,,,,,,,,,
1676663564.122038,1676663564.122329,47.000000,0.000000,4288.333496,4251.153809,4272.820313,4300.641113,4264.230957,4266.538574,4271.538574,4280.769043,4249.487305,4233.077148,4448.077148,4459.743652,4317.051270,4398.846191,0.000000,4.000000,79.000000,,,,0.000000,4.000000,4.000000,4.000000,4.000000,4.000000,4.000000,4.000000,4.000000,4.000000,4.000000,4.000000,4.000000,4.000000,4.000000,100.000000,,,,,,,,,,,,,,,,,,,,,,,,,,,,,,,,,,,,,,,,,,,,,,,,,,,,,,,,,,,,,,,,,,,,,,,,,,,,,,,,,,,,,,
1676663564.129847,1676663564.130237,48.000000,0.000000,4286.153809,4237.307617,4271.538574,4281.282227,4264.102539,4262.051270,4271.153809,4280.000000,4247.948730,4229.230957,4459.615234,4451.153809,4308.205078,4387.948730,0.000000,4.000000,79.000000,,,,0.000000,4.000000,4.000000,4.000000,4.000000,4.000000,4.000000,4.000000,4.000000,4.000000,4.000000,4.000000,4.000000,4.000000,4.000000,100.000000,,,,,,,,,,,,,,,,,,,,,,,,,,,,,,,,,,,,,,,,,,,,,,,,,,,,,,,,,,,,,,,,,,,,,,,,,,,,,,,,,,,,,,
1676663564.137655,1676663564.138045,49.000000,0.000000,4293.974121,4246.922852,4283.461426,4293.717773,4261.922852,4264.102539,4279.358887,4281.410156,4250.897461,4238.205078,4476.922852,4455.897461,4321.282227,4389.230957,0.000000,4.000000,79.000000,,,,0.000000,4.000000,4.000000,4.000000,4.000000,4.000000,4.000000,4.000000,4.000000,4.000000,4.000000,4.000000,4.000000,4.000000,4.000000,100.000000,,,,,,,,,,,,,,,,,,,,,,,,,,,,,,,,,,,,,,,,,,,,,,,,,,,,,,,,,,,,,,,,,,,,,,,,,,,,,,,,,,,,,,
1676663564.145463,1676663564.145954,50.000000,0.000000,4304.871582,4259.487305,4297.307617,4311.538574,4269.487305,4271.410156,4284.358887,4289.102539,4260.897461,4245.512695,4488.974121,4474.487305,4341.025879,4409.615234,0.000000,4.000000,79.000000,,,,0.000000,4.000000,4.000000,4.000000,4.000000,4.000000,4.000000,4.000000,4.000000,4.000000,4.000000,4.000000,4.000000,4.000000,4.000000,100.000000,,,,,,,,,,,,,,,,,,,,,,,,,,,,,,,,,,,,,,,,,,,,,,,,,,,,,,,,,,,,,,,,,,,,,,,,,,,,,,,,,,,,,,
1676663564.153272,1676663564.153762,51.000000,0.000000,4311.282227,4265.512695,4306.025879,4319.487305,4281.922852,4273.077148,4286.666504,4292.948730,4270.641113,4253.717773,4481.922852,4491.794922,4344.615234,4428.974121,0.000000,4.000000,79.000000,,,,0.000000,4.000000,4.000000,4.000000,4.000000,4.000000,4.000000,4.000000,4.000000,4.000000,4.000000,4.000000,4.000000,4.000000,4.000000,100.000000,,,,,,,,,,,,,,,,,,,,,,,,,,,,,,,,,,,,,,,,,,,,,,,,,,,,,,,,,,,,,,,,,,,,,,,,,,,,,,,,,,,,,,
1676663564.161080,1676663564.161670,52.000000,0.000000,4312.948730,4266.025879,4314.871582,4302.820313,4273.077148,4266.410156,4289.358887,4291.538574,4273.974121,4257.307617,4479.487305,4492.307617,4345.000000,4427.051270,0.000000,4.000000,79.000000,,,,0.000000,4.000000,4.000000,4.000000,4.000000,4.000000,4.000000,4.000000,4.000000,4.000000,4.000000,4.000000,4.000000,4.000000,4.000000,100.000000,,,,,,,,,,,,,,,,,,,,,,,,,,,,,,,,,,,,,,,,,,,,,,,,,,,,,,,,,,,,,,,,,,,,,,,,,,,,,,,,,,,,,,
1676663564.168888,1676663564.169479,53.000000,0.000000,4307.179688,4263.974121,4311.666504,4297.179688,4268.205078,4264.230957,4286.153809,4287.948730,4269.615234,4256.922852,4482.436035,4480.641113,4339.487305,4416.282227,0.000000,4.000000,79.000000,,,,0.000000,4.000000,4.000000,4.000000,4.000000,4.000000,4.000000,4.000000,4.000000,4.000000,4.000000,4.000000,4.000000,4.000000,4.000000,100.000000,,,,,,,,,,,,,,,,,41.418945,10.292018,3.266055,0.588025,0.418405,1.312894,1.025512,0.899359,0.495144,1.045272,1.085645,1.657883,1.847078,0.610752,0.759408,2.099391,1.667172,0.751245,1.179800,2.318583,0.428689,0.222773,0.369121,0.165660,0.191487,2.504746,1.089255,0.492122,0.198138,0.131621,2.843215,1.312653,0.974922,0.290960,0.221833,2.525805,1.680775,0.663575,0.112490,0.156856,1.205671,3.924861,1.336307,0.379279,0.352446,0.666397,1.072937,0.963305,0.342386,0.494925,1.681416,1.948984,0.723508,0.917834,1.830109,3.417849,2.649647,1.195174,0.459297,0.690662,1.293741,1.410812,0.797084,0.552974,0.822376,4.855183,2.445508,1.088510,0.584084,0.574630
1676663564.176697,1676663564.177387,54.000000,0.000000,4295.128418,4265.897461,4292.051270,4322.692383,4280.000000,4264.230957,4280.128418,4284.743652,4261.410156,4259.871582,4478.717773,4473.077148,4336.922852,4410.641113,0.000000,4.000000,79.000000,,,,0.000000,4.000000,4.000000,4.000000,4.000000,4.000000,4.000000,4.000000,4.000000,4.000000,4.000000,4.000000,4.000000,4.000000,4.000000,100.000000,,,,,,,,,,,,,,,,,,,,,,,,,,,,,,,,,,,,,,,,,,,,,,,,,,,,,,,,,,,,,,,,,,,,,,,,,,,,,,,,,,,,,,
1676663564.184505,1676663564.185195,55.000000,0.000000,4291.666504,4266.282227,4288.333496,4315.897461,4276.282227,4253.077148,4279.487305,4286.794922,4265.897461,4263.077148,4488.077148,4470.897461,4348.846191,4411.282227,0.000000,4.000000,79.000000,,,,0.000000,4.000000,4.000000,4.000000,4.000000,4.000000,4.000000,4.000000,4.000000,4.000000,4.000000,4.000000,4.000000,4.000000,4.000000,100.000000,,,,,,,,,,,,,,,,,,,,,,,,,,,,,,,,,,,,,,,,,,,,,,,,,,,,,,,,,,,,,,,,,,,,,,,,,,,,,,,,,,,,,,
1676663564.192314,1676663564.193103,56.000000,0.000000,4300.897461,4260.641113,4309.615234,4285.384766,4265.641113,4244.871582,4284.487305,4292.436035,4277.051270,4258.333496,4492.307617,4479.230957,4347.563965,4418.461426,0.000000,4.000000,79.000000,,,,0.000000,4.000000,4.000000,4.000000,4.000000,4.000000,4.000000,4.000000,4.000000,4.000000,4.000000,4.000000,4.000000,4.000000,4.000000,100.000000,,,,,,,,,,,,,,,,,,,,,,,,,,,,,,,,,,,,,,,,,,,,,,,,,,,,,,,,,,,,,,,,,,,,,,,,,,,,,,,,,,,,,,
1676663564.200122,1676663564.200912,57.000000,0.000000,4308.461426,4264.743652,4321.025879,4301.282227,4274.358887,4251.282227,4286.282227,4291.922852,4274.487305,4250.256348,4471.025879,4493.846191,4341.538574,4429.871582,0.000000,4.000000,79.000000,,,,0.000000,4.000000,4.000000,4.000000,4.000000,4.000000,4.000000,4.000000,4.000000,4.000000,4.000000,4.000000,4.000000,4.000000,4.000000,100.000000,,,,,,,,,,,,,,,,,,,,,,,,,,,,,,,,,,,,,,,,,,,,,,,,,,,,,,,,,,,,,,,,,,,,,,,,,,,,,,,,,,,,,,
1676663564.207930,1676663564.208820,58.000000,0.000000,4306.282227,4279.615234,4313.077148,4338.846191,4285.128418,4253.333496,4282.436035,4290.897461,4272.563965,4255.769043,4470.256348,4487.563965,4347.436035,4429.743652,0.000000,4.000000,79.000000,,,,0.000000,4.000000,4.000000,4.000000,4.000000,4.000000,4.000000,4.000000,4.000000,4.000000,4.000000,4.000000,4.000000,4.000000,4.000000,100.000000,,,,,,,,,,,,,,,,,,,,,,,,,,,,,,,,,,,,,,,,,,,,,,,,,,,,,,,,,,,,,,,,,,,,,,,,,,,,,,,,,,,,,,
1676663564.215739,1676663564.216628,59.000000,0.000000,4305.769043,4284.358887,4310.897461,4339.230957,4281.922852,4247.820313,4280.256348,4291.153809,4280.512695,4268.846191,4495.256348,4478.077148,4346.538574,4422.692383,0.000000,4.000000,79.000000,,,,0.000000,4.000000,4.000000,4.000000,4.000000,4.000000,4.000000,4.000000,4.000000,4.000000,4.000000,4.000000,4.000000,4.000000,4.000000,100.000000,,,,,,,,,,,,,,,,,,,,,,,,,,,,,,,,,,,,,,,,,,,,,,,,,,,,,,,,,,,,,,,,,,,,,,,,,,,,,,,,,,,,,,
1676663564.223547,1676663564.224536,60.000000,0.000000,4311.922852,4270.641113,4325.769043,4305.128418,4278.333496,4251.794922,4281.794922,4290.512695,4283.205078,4269.230957,4499.487305,4491.025879,4344.743652,4429.358887,0.000000,4.000000,79.000000,,,,0.000000,4.000000,4.000000,4.000000,4.000000,4.000000,4.000000,4.000000,4.000000,4.000000,4.000000,4.000000,4.000000,4.000000,4.000000,100.000000,,,,,,,,,,,,,,,,,,,,,,,,,,,,,,,,,,,,,,,,,,,,,,,,,,,,,,,,,,,,,,,,,,,,,,,,,,,,,,,,,,,,,,
1676663564.231355,1676663564.232344,61.000000,0.000000,4309.743652,4261.922852,4329.487305,4293.589844,4280.256348,4262.436035,4282.179688,4291.666504,4277.692383,4256.794922,4487.948730,4492.820313,4349.743652,4431.666504,0.000000,4.000000,79.000000,,,,0.000000,4.000000,4.000000,4.000000,4.000000,4.000000,4.000000,4.000000,4.000000,4.000000,4.000000,4.000000,4.000000,4.000000,4.000000,100.000000,,,,,,,,,,,,,,,,,,,,,,,,,,,,,,,,,,,,,,,,,,,,,,,,,,,,,,,,,,,,,,,,,,,,,,,,,,,,,,,,,,,,,,
1676663564.239164,1676663564.240053,62.000000,0.000000,4300.000000,4269.743652,4314.358887,4321.666504,4280.769043,4264.230957,4286.666504,4292.179688,4273.589844,4256.794922,4479.615234,4477.692383,4346.922852,4416.922852,0.000000,4.000000,79.000000,,,,0.000000,4.000000,4.000000,4.000000,4.000000,4.000000,4.000000,4.000000,4.000000,4.000000,4.000000,4.000000,4.000000,4.000000,4.000000,100.000000,,,,,,,,,,,,,,,,,,,,,,,,,,,,,,,,,,,,,,,,,,,,,,,,,,,,,,,,,,,,,,,,,,,,,,,,,,,,,,,,,,,,,,
1676663564.246972,1676663564.247861,63.000000,0.000000,4300.128418,4273.205078,4308.974121,4330.641113,4276.794922,4262.820313,4292.563965,4286.153809,4269.358887,4263.717773,4478.589844,4479.230957,4341.794922,4417.179688,0.000000,4.000000,79.000000,,,,0.000000,4.000000,4.000000,4.000000,4.000000,4.000000,4.000000,4.000000,4.000000,4.000000,4.000000,4.000000,4.000000,4.000000,4.000000,100.000000,,,,,,,,,,,,,,,,,,,,,,,,,,,,,,,,,,,,,,,,,,,,,,,,,,,,,,,,,,,,,,,,,,,,,,,,,,,,,,,,,,,,,,
1676663564.254780,1676663564.255569,64.000000,0.000000,4300.384766,4262.820313,4313.846191,4301.025879,4275.384766,4265.000000,4286.282227,4280.512695,4260.512695,4251.282227,4472.820313,4486.666504,4337.692383,4428.589844,2451.000000,4.000000,79.000000,,,,0.000000,4.000000,4.000000,4.000000,4.000000,4.000000,4.000000,4.000000,4.000000,4.000000,4.000000,4.000000,4.000000,4.000000,4.000000,100.000000,,,,,,,,,,,,,,,,,,,,,,,,,,,,,,,,,,,,,,,,,,,,,,,,,,,,,,,,,,,,,,,,,,,,,,,,,,,,,,,,,,,,,,
1676663564.262589,1676663564.263377,65.000000,0.000000,4292.563965,4259.102539,4310.512695,4294.230957,4278.205078,4263.333496,4279.358887,4284.358887,4258.077148,4239.487305,4466.666504,4478.461426,4331.794922,4418.077148,2050.000000,4.000000,79.000000,,,,0.000000,4.000000,4.000000,4.000000,4.000000,4.000000,4.000000,4.000000,4.000000,4.000000,4.000000,4.000000,4.000000,4.000000,4.000000,100.000000,,,,,,,,,,,,,,,,,,,,,,,,,,,,,,,,,,,,,,,,,,,,,,,,,,,,,,,,,,,,,,,,,,,,,,,,,,,,,,,,,,,,,,
1676663564.270397,1676663564.271086,66.000000,0.000000,4294.230957,4270.384766,4310.512695,4319.358887,4276.410156,4260.641113,4283.974121,4292.051270,4264.358887,4251.538574,4484.743652,4474.102539,4338.974121,4408.077148,1793.000000,4.000000,79.000000,,,,0.000000,4.000000,4.000000,4.000000,4.000000,4.000000,4.000000,4.000000,4.000000,4.000000,4.000000,4.000000,4.000000,4.000000,4.000000,100.000000,,,,,,,,,,,,,,,,,,,,,,,,,,,,,,,,,,,,,,,,,,,,,,,,,,,,,,,,,,,,,,,,,,,,,,,,,,,,,,,,,,,,,,
1676663564.278206,1676663564.278894,67.000000,0.000000,4306.794922,4272.692383,4322.563965,4304.358887,4274.871582,4263.846191,4280.256348,4292.051270,4267.436035,4261.666504,4495.512695,4481.922852,4348.461426,4423.717773,2227.000000,4.000000,79.000000,,,,0.000000,4.000000,4.000000,4.000000,4.000000,4.000000,4.000000,4.000000,4.000000,4.000000,4.000000,4.000000,4.000000,4.000000,4.000000,100.000000,,,,,,,,,,,,,,,,,,,,,,,,,,,,,,,,,,,,,,,,,,,,,,,,,,,,,,,,,,,,,,,,,,,,,,,,,,,,,,,,,,,,,,
1676663564.286014,1676663564.286602,68.000000,0.000000,4304.871582,4265.384766,4322.179688,4291.025879,4278.846191,4262.307617,4267.179688,4286.666504,4263.333496,4250.256348,4472.692383,4482.307617,4341.666504,4428.077148,1748.000000,4.000000,79.000000,,,,0.000000,4.000000,4.000000,4.000000,4.000000,4.000000,4.000000,4.000000,4.000000,4.000000,4.000000,4.000000,4.000000,4.000000,4.000000,100.000000,,,,,,,,,,,,,,,,,,,,,,,,,,,,,,,,,,,,,,,,,,,,,,,,,,,,,,,,,,,,,,,,,,,,,,,,,,,,,,,,,,,,,,
1676663564.293822,1676663564.294410,69.000000,0.000000,4293.846191,4271.922852,4306.025879,4325.000000,4283.077148,4258.974121,4268.846191,4287.307617,4263.333496,4247.563965,4472.692383,4472.436035,4340.128418,4411.794922,2309.000000,4.000000,79.000000,,,,0.000000,4.000000,4.000000,4.000000,4.000000,4.000000,4.000000,4.000000,4.000000,4.000000,4.000000,4.000000,4.000000,4.000000,4.000000,100.000000,1.000000,75.000000,4.000000,4.000000,3.000000,3.000000,4.000000,4.000000,4.000000,4.000000,4.000000,3.000000,3.000000,4.000000,4.000000,4.000000,53.959766,12.417399,3.597399,0.645059,0.437489,1.074971,0.947426,0.972601,0.407614,0.855831,1.247939,1.751188,2.010278,0.597105,0.689649,2.180181,1.818592,0.829113,1.113626,1.767536,0.290277,0.183730,0.259741,0.126794,0.128956,2.610410,1.186666,0.443566,0.198484,0.115766,3.622681,1.429779,1.030942,0.286749,0.175503,3.096148,1.727298,0.778338,0.097216,0.128402,1.237340,3.897439,1.366518,0.339038,0.290557,0.686622,0.918273,0.886106,0.392097,0.394530,1.963104,1.729929,0.746556,1.148811,1.437288,4.584964,2.830107,1.213301,0.396163,0.617727,1.676240,1.281463,0.688774,0.601581,0.599714,6.394649,2.758836,1.076931,0.505948,0.512105
1676663564.301631,1676663564.302119,70.000000,0.000000,4294.487305,4278.333496,4304.102539,4329.743652,4282.307617,4267.692383,4281.538574,4292.179688,4267.179688,4254.358887,4483.589844,4473.461426,4336.922852,4411.666504,1968.000000,4.000000,79.000000,,,,0.000000,4.000000,4.000000,4.000000,4.000000,4.000000,4.000000,4.000000,4.000000,4.000000,4.000000,4.000000,4.000000,4.000000,4.000000,100.000000,,,,,,,,,,,,,,,,,,,,,,,,,,,,,,,,,,,,,,,,,,,,,,,,,,,,,,,,,,,,,,,,,,,,,,,,,,,,,,,,,,,,,,
1676663564.309439,1676663564.309927,71.000000,0.000000,4298.077148,4273.717773,4313.717773,4298.077148,4278.974121,4273.589844,4287.820313,4291.922852,4265.384766,4243.461426,4467.692383,4483.205078,4327.948730,4423.589844,1533.000000,4.000000,79.000000,,,,0.000000,4.000000,4.000000,4.000000,4.000000,4.000000,4.000000,4.000000,4.000000,4.000000,4.000000,4.000000,4.000000,4.000000,4.000000,100.000000,,,,,,,,,,,,,,,,,,,,,,,,,,,,,,,,,,,,,,,,,,,,,,,,,,,,,,,,,,,,,,,,,,,,,,,,,,,,,,,,,,,,,,
