title:Psychopy_Shane_1_2023-02-10T112202.227008, start timestamp:1676056922.141717, stop timestamp:1676056983.164255, headset type:EPOCX, headset serial:E2020A42, headset firmware:720, channels:125, sampling rate:eeg_128;pow_8, samples:7816      , version:2.1, 
Timestamp,OriginalTimestamp,EEG.Counter,EEG.Interpolated,EEG.AF3,EEG.F7,EEG.F3,EEG.FC5,EEG.T7,EEG.P7,EEG.O1,EEG.O2,EEG.P8,EEG.T8,EEG.FC6,EEG.F4,EEG.F8,EEG.AF4,EEG.RawCq,EEG.Battery,EEG.BatteryPercent,MarkerIndex,MarkerType,MarkerValueInt,EEG.MarkerHardware,CQ.AF3,CQ.F7,CQ.F3,CQ.FC5,CQ.T7,CQ.P7,CQ.O1,CQ.O2,CQ.P8,CQ.T8,CQ.FC6,CQ.F4,CQ.F8,CQ.AF4,CQ.Overall,EQ.SampleRateQuality,EQ.OVERALL,EQ.AF3,EQ.F7,EQ.F3,EQ.FC5,EQ.T7,EQ.P7,EQ.O1,EQ.O2,EQ.P8,EQ.T8,EQ.FC6,EQ.F4,EQ.F8,EQ.AF4,POW.AF3.Theta,POW.AF3.Alpha,POW.AF3.BetaL,POW.AF3.BetaH,POW.AF3.Gamma,POW.F7.Theta,POW.F7.Alpha,POW.F7.BetaL,POW.F7.BetaH,POW.F7.Gamma,POW.F3.Theta,POW.F3.Alpha,POW.F3.BetaL,POW.F3.BetaH,POW.F3.Gamma,POW.FC5.Theta,POW.FC5.Alpha,POW.FC5.BetaL,POW.FC5.BetaH,POW.FC5.Gamma,POW.T7.Theta,POW.T7.Alpha,POW.T7.BetaL,POW.T7.BetaH,POW.T7.Gamma,POW.P7.Theta,POW.P7.Alpha,POW.P7.BetaL,POW.P7.BetaH,POW.P7.Gamma,POW.O1.Theta,POW.O1.Alpha,POW.O1.BetaL,POW.O1.BetaH,POW.O1.Gamma,POW.O2.Theta,POW.O2.Alpha,POW.O2.BetaL,POW.O2.BetaH,POW.O2.Gamma,POW.P8.Theta,POW.P8.Alpha,POW.P8.BetaL,POW.P8.BetaH,POW.P8.Gamma,POW.T8.Theta,POW.T8.Alpha,POW.T8.BetaL,POW.T8.BetaH,POW.T8.Gamma,POW.FC6.Theta,POW.FC6.Alpha,POW.FC6.BetaL,POW.FC6.BetaH,POW.FC6.Gamma,POW.F4.Theta,POW.F4.Alpha,POW.F4.BetaL,POW.F4.BetaH,POW.F4.Gamma,POW.F8.Theta,POW.F8.Alpha,POW.F8.BetaL,POW.F8.BetaH,POW.F8.Gamma,POW.AF4.Theta,POW.AF4.Alpha,POW.AF4.BetaL,POW.AF4.BetaH,POW.AF4.Gamma
1676056922.141717,1676056922.142597,13.000000,0.000000,4279.230957,4266.794922,4317.436035,4342.436035,4312.948730,4311.282227,4326.666504,4308.333496,4268.333496,4310.000000,4473.717773,4474.871582,4390.128418,4460.512695,3244.000000,4.000000,98.000000,,,,0.000000,4.000000,4.000000,4.000000,4.000000,4.000000,4.000000,4.000000,4.000000,4.000000,4.000000,4.000000,4.000000,4.000000,4.000000,100.000000,,,,,,,,,,,,,,,,,,,,,,,,,,,,,,,,,,,,,,,,,,,,,,,,,,,,,,,,,,,,,,,,,,,,,,,,,,,,,,,,,,,,,,
1676056922.149526,1676056922.150306,14.000000,0.000000,4269.743652,4249.230957,4302.179688,4329.102539,4301.282227,4304.358887,4310.897461,4293.205078,4258.974121,4299.743652,4463.974121,4460.512695,4385.384766,4457.307617,2409.000000,4.000000,98.000000,,,,0.000000,4.000000,4.000000,4.000000,4.000000,4.000000,4.000000,4.000000,4.000000,4.000000,4.000000,4.000000,4.000000,4.000000,4.000000,100.000000,1.000000,91.666664,4.000000,4.000000,4.000000,4.000000,4.000000,4.000000,4.000000,4.000000,4.000000,3.000000,4.000000,4.000000,4.000000,4.000000,1.335965,4.496500,0.843628,0.231717,0.157569,0.849690,3.214272,0.958457,0.412156,0.262489,1.420364,6.505116,1.228615,0.321521,0.179948,1.144159,3.367126,1.223575,0.308559,0.151483,0.467072,2.765631,0.991280,0.171909,0.108850,0.748251,2.070056,0.662112,0.227056,0.061917,1.331252,12.454193,1.169225,0.378523,0.144150,8.492502,7.881320,0.733517,0.915833,0.324512,1.997361,12.787870,1.589212,0.666048,0.360287,1.742849,6.816533,1.647729,0.407195,0.162025,2.582197,3.972275,1.254931,0.458158,0.258092,7.733487,10.976435,1.903209,0.988560,0.383154,2.258893,4.620444,1.675026,0.392905,0.254051,2.839117,4.160879,1.301682,0.264070,0.180144
1676056922.157334,1676056922.158114,15.000000,0.000000,4263.333496,4252.563965,4297.436035,4330.512695,4292.436035,4293.333496,4298.461426,4290.256348,4259.102539,4300.641113,4456.922852,4460.897461,4385.641113,4457.948730,2471.000000,4.000000,98.000000,,,,0.000000,4.000000,4.000000,4.000000,4.000000,4.000000,4.000000,4.000000,4.000000,4.000000,4.000000,4.000000,4.000000,4.000000,4.000000,100.000000,,,,,,,,,,,,,,,,,,,,,,,,,,,,,,,,,,,,,,,,,,,,,,,,,,,,,,,,,,,,,,,,,,,,,,,,,,,,,,,,,,,,,,
1676056922.165142,1676056922.165823,16.000000,0.000000,4266.794922,4267.051270,4303.717773,4331.794922,4290.641113,4288.974121,4289.230957,4288.846191,4257.820313,4305.897461,4461.794922,4472.948730,4387.948730,4461.666504,0.000000,4.000000,98.000000,,,,0.000000,4.000000,4.000000,4.000000,4.000000,4.000000,4.000000,4.000000,4.000000,4.000000,4.000000,4.000000,4.000000,4.000000,4.000000,100.000000,,,,,,,,,,,,,,,,,,,,,,,,,,,,,,,,,,,,,,,,,,,,,,,,,,,,,,,,,,,,,,,,,,,,,,,,,,,,,,,,,,,,,,
1676056922.172951,1676056922.173631,17.000000,0.000000,4265.128418,4260.128418,4298.846191,4320.128418,4281.922852,4282.307617,4280.897461,4272.563965,4248.077148,4299.871582,4461.153809,4464.743652,4385.512695,4455.256348,0.000000,4.000000,98.000000,,,,0.000000,4.000000,4.000000,4.000000,4.000000,4.000000,4.000000,4.000000,4.000000,4.000000,4.000000,4.000000,4.000000,4.000000,4.000000,100.000000,,,,,,,,,,,,,,,,,,,,,,,,,,,,,,,,,,,,,,,,,,,,,,,,,,,,,,,,,,,,,,,,,,,,,,,,,,,,,,,,,,,,,,
1676056922.180759,1676056922.181340,18.000000,0.000000,4262.692383,4247.948730,4291.282227,4315.000000,4276.410156,4275.897461,4271.025879,4262.948730,4243.589844,4295.769043,4456.025879,4483.461426,4383.205078,4445.897461,0.000000,4.000000,98.000000,,,,0.000000,4.000000,4.000000,4.000000,4.000000,4.000000,4.000000,4.000000,4.000000,4.000000,4.000000,4.000000,4.000000,4.000000,4.000000,100.000000,,,,,,,,,,,,,,,,,,,,,,,,,,,,,,,,,,,,,,,,,,,,,,,,,,,,,,,,,,,,,,,,,,,,,,,,,,,,,,,,,,,,,,
1676056922.188568,1676056922.189248,19.000000,0.000000,4262.179688,4250.512695,4291.538574,4322.563965,4279.615234,4276.153809,4265.384766,4274.743652,4255.512695,4304.743652,4458.589844,4546.153809,4385.512695,4445.256348,0.000000,4.000000,98.000000,,,,0.000000,4.000000,4.000000,4.000000,4.000000,4.000000,4.000000,4.000000,4.000000,4.000000,4.000000,4.000000,4.000000,4.000000,4.000000,100.000000,,,,,,,,,,,,,,,,,,,,,,,,,,,,,,,,,,,,,,,,,,,,,,,,,,,,,,,,,,,,,,,,,,,,,,,,,,,,,,,,,,,,,,
1676056922.196376,1676056922.197057,20.000000,0.000000,4255.000000,4250.512695,4290.384766,4324.358887,4279.358887,4276.538574,4269.487305,4288.974121,4265.512695,4307.179688,4458.974121,4567.948730,4383.589844,4445.256348,0.000000,4.000000,98.000000,,,,0.000000,4.000000,4.000000,4.000000,4.000000,4.000000,4.000000,4.000000,4.000000,4.000000,4.000000,4.000000,4.000000,4.000000,4.000000,100.000000,,,,,,,,,,,,,,,,,,,,,,,,,,,,,,,,,,,,,,,,,,,,,,,,,,,,,,,,,,,,,,,,,,,,,,,,,,,,,,,,,,,,,,
1676056922.204184,1676056922.204965,21.000000,0.000000,4253.205078,4247.692383,4289.358887,4324.358887,4285.641113,4283.717773,4281.153809,4295.512695,4271.282227,4306.153809,4460.128418,4540.128418,4382.948730,4442.563965,0.000000,4.000000,98.000000,,,,0.000000,4.000000,4.000000,4.000000,4.000000,4.000000,4.000000,4.000000,4.000000,4.000000,4.000000,4.000000,4.000000,4.000000,4.000000,100.000000,,,,,,,,,,,,,,,,,,,,,,,,,,,,,,,,,,,,,,,,,,,,,,,,,,,,,,,,,,,,,,,,,,,,,,,,,,,,,,,,,,,,,,
1676056922.211993,1676056922.212773,22.000000,0.000000,4262.948730,4255.897461,4292.307617,4326.153809,4295.641113,4292.820313,4290.000000,4298.974121,4278.717773,4311.922852,4462.820313,4526.666504,4388.717773,4442.436035,0.000000,4.000000,98.000000,,,,0.000000,4.000000,4.000000,4.000000,4.000000,4.000000,4.000000,4.000000,4.000000,4.000000,4.000000,4.000000,4.000000,4.000000,4.000000,100.000000,,,,,,,,,,,,,,,,,,,,,,,,,,,,,,,,,,,,,,,,,,,,,,,,,,,,,,,,,,,,,,,,,,,,,,,,,,,,,,,,,,,,,,
1676056922.219801,1676056922.220682,23.000000,0.000000,4269.871582,4264.102539,4293.461426,4325.256348,4296.538574,4299.615234,4298.333496,4296.666504,4273.589844,4305.897461,4460.256348,4525.000000,4386.025879,4441.794922,0.000000,4.000000,98.000000,,,,0.000000,4.000000,4.000000,4.000000,4.000000,4.000000,4.000000,4.000000,4.000000,4.000000,4.000000,4.000000,4.000000,4.000000,4.000000,100.000000,,,,,,,,,,,,,,,,,,,,,,,,,,,,,,,,,,,,,,,,,,,,,,,,,,,,,,,,,,,,,,,,,,,,,,,,,,,,,,,,,,,,,,
1676056922.227609,1676056922.228490,24.000000,0.000000,4267.563965,4264.358887,4294.743652,4331.025879,4299.358887,4307.692383,4312.307617,4294.102539,4264.230957,4295.384766,4457.563965,4512.692383,4380.641113,4441.282227,0.000000,4.000000,98.000000,,,,0.000000,4.000000,4.000000,4.000000,4.000000,4.000000,4.000000,4.000000,4.000000,4.000000,4.000000,4.000000,4.000000,4.000000,4.000000,100.000000,,,,,,,,,,,,,,,,,,,,,,,,,,,,,,,,,,,,,,,,,,,,,,,,,,,,,,,,,,,,,,,,,,,,,,,,,,,,,,,,,,,,,,
1676056922.235418,1676056922.236399,25.000000,0.000000,4268.974121,4253.974121,4292.692383,4334.230957,4301.666504,4304.743652,4315.256348,4296.538574,4265.128418,4294.871582,4457.948730,4503.846191,4383.333496,4442.820313,0.000000,4.000000,98.000000,,,,0.000000,4.000000,4.000000,4.000000,4.000000,4.000000,4.000000,4.000000,4.000000,4.000000,4.000000,4.000000,4.000000,4.000000,4.000000,100.000000,,,,,,,,,,,,,,,,,,,,,,,,,,,,,,,,,,,,,,,,,,,,,,,,,,,,,,,,,,,,,,,,,,,,,,,,,,,,,,,,,,,,,,
1676056922.243226,1676056922.244207,26.000000,0.000000,4278.333496,4247.051270,4292.820313,4329.230957,4296.153809,4296.282227,4304.358887,4290.897461,4260.000000,4295.384766,4458.077148,4505.384766,4383.589844,4442.436035,0.000000,4.000000,98.000000,,,,0.000000,4.000000,4.000000,4.000000,4.000000,4.000000,4.000000,4.000000,4.000000,4.000000,4.000000,4.000000,4.000000,4.000000,4.000000,100.000000,,,,,,,,,,,,,,,,,,,,,,,,,,,,,,,,,,,,,,,,,,,,,,,,,,,,,,,,,,,,,,,,,,,,,,,,,,,,,,,,,,,,,,
1676056922.251035,1676056922.252115,27.000000,0.000000,4283.205078,4254.358887,4301.538574,4329.743652,4291.538574,4291.538574,4293.717773,4286.922852,4251.025879,4293.205078,4459.102539,4507.179688,4385.000000,4446.025879,0.000000,4.000000,98.000000,,,,0.000000,4.000000,4.000000,4.000000,4.000000,4.000000,4.000000,4.000000,4.000000,4.000000,4.000000,4.000000,4.000000,4.000000,4.000000,100.000000,,,,,,,,,,,,,,,,,,,,,,,,,,,,,,,,,,,,,,,,,,,,,,,,,,,,,,,,,,,,,,,,,,,,,,,,,,,,,,,,,,,,,,
1676056922.258843,1676056922.259924,28.000000,0.000000,4278.589844,4261.153809,4304.230957,4331.153809,4288.846191,4284.871582,4286.282227,4292.436035,4253.333496,4293.589844,4459.743652,4506.025879,4392.692383,4455.256348,0.000000,4.000000,98.000000,,,,0.000000,4.000000,4.000000,4.000000,4.000000,4.000000,4.000000,4.000000,4.000000,4.000000,4.000000,4.000000,4.000000,4.000000,4.000000,100.000000,,,,,,,,,,,,,,,,,,,,,,,,,,,,,,,,,,,,,,,,,,,,,,,,,,,,,,,,,,,,,,,,,,,,,,,,,,,,,,,,,,,,,,
1676056922.266651,1676056922.267832,29.000000,0.000000,4282.948730,4262.051270,4297.307617,4327.051270,4289.615234,4276.666504,4277.307617,4287.692383,4252.307617,4299.615234,4460.384766,4506.410156,4397.820313,4460.128418,0.000000,4.000000,98.000000,,,,0.000000,4.000000,4.000000,4.000000,4.000000,4.000000,4.000000,4.000000,4.000000,4.000000,4.000000,4.000000,4.000000,4.000000,4.000000,100.000000,,,,,,,,,,,,,,,,,,,,,,,,,,,,,,,,,,,,,,,,,,,,,,,,,,,,,,,,,,,,,,,,,,,,,,,,,,,,,,,,,,,,,,
1676056922.274460,1676056922.275641,30.000000,0.000000,4293.974121,4265.000000,4296.410156,4329.615234,4293.077148,4276.025879,4273.846191,4277.307617,4248.077148,4308.846191,4463.205078,4503.717773,4397.436035,4460.897461,0.000000,4.000000,98.000000,,,,0.000000,4.000000,4.000000,4.000000,4.000000,4.000000,4.000000,4.000000,4.000000,4.000000,4.000000,4.000000,4.000000,4.000000,4.000000,100.000000,,,,,,,,,,,,,,,,,1.201899,4.614887,0.652310,0.266262,0.149792,0.622423,3.279540,0.749286,0.426502,0.265023,1.370743,6.668629,1.133052,0.346953,0.167842,0.895897,3.518128,1.041890,0.313019,0.146140,0.295141,2.971920,0.848557,0.188543,0.102976,0.659206,2.177069,0.567666,0.242665,0.061851,1.398922,13.992850,1.440155,0.407154,0.146701,7.304246,7.696951,0.653169,0.750766,0.283751,1.984504,11.250256,1.237999,0.654617,0.341665,1.969510,5.402171,1.350336,0.432815,0.149461,2.662896,4.033494,1.132152,0.485778,0.241899,7.011135,10.328087,1.961922,0.946496,0.320363,2.579365,4.630933,1.489410,0.387735,0.219561,2.549242,4.579026,1.124428,0.269964,0.186401
1676056922.282268,1676056922.283549,31.000000,0.000000,4288.717773,4265.769043,4300.000000,4330.641113,4285.512695,4276.922852,4278.205078,4284.230957,4257.563965,4313.589844,4463.077148,4497.563965,4396.794922,4459.230957,0.000000,4.000000,98.000000,,,,0.000000,4.000000,4.000000,4.000000,4.000000,4.000000,4.000000,4.000000,4.000000,4.000000,4.000000,4.000000,4.000000,4.000000,4.000000,100.000000,,,,,,,,,,,,,,,,,,,,,,,,,,,,,,,,,,,,,,,,,,,,,,,,,,,,,,,,,,,,,,,,,,,,,,,,,,,,,,,,,,,,,,
1676056922.290076,1676056922.291357,32.000000,0.000000,4280.384766,4262.051270,4300.384766,4324.230957,4277.436035,4279.487305,4277.051270,4299.487305,4271.538574,4307.436035,4463.461426,4498.846191,4395.512695,4456.922852,0.000000,4.000000,98.000000,,,,0.000000,4.000000,4.000000,4.000000,4.000000,4.000000,4.000000,4.000000,4.000000,4.000000,4.000000,4.000000,4.000000,4.000000,4.000000,100.000000,,,,,,,,,,,,,,,,,,,,,,,,,,,,,,,,,,,,,,,,,,,,,,,,,,,,,,,,,,,,,,,,,,,,,,,,,,,,,,,,,,,,,,
1676056922.297885,1676056922.299266,33.000000,0.000000,4290.641113,4264.358887,4308.589844,4332.820313,4289.230957,4289.743652,4277.820313,4307.948730,4283.333496,4310.512695,4474.230957,4510.641113,4398.846191,4466.410156,0.000000,4.000000,98.000000,,,,0.000000,4.000000,4.000000,4.000000,4.000000,4.000000,4.000000,4.000000,4.000000,4.000000,4.000000,4.000000,4.000000,4.000000,4.000000,100.000000,,,,,,,,,,,,,,,,,,,,,,,,,,,,,,,,,,,,,,,,,,,,,,,,,,,,,,,,,,,,,,,,,,,,,,,,,,,,,,,,,,,,,,
1676056922.305693,1676056922.307074,34.000000,0.000000,4299.358887,4267.692383,4314.358887,4344.615234,4299.615234,4296.410156,4287.820313,4313.333496,4287.051270,4317.307617,4480.384766,4512.563965,4402.051270,4475.897461,0.000000,4.000000,98.000000,,,,0.000000,4.000000,4.000000,4.000000,4.000000,4.000000,4.000000,4.000000,4.000000,4.000000,4.000000,4.000000,4.000000,4.000000,4.000000,100.000000,,,,,,,,,,,,,,,,,,,,,,,,,,,,,,,,,,,,,,,,,,,,,,,,,,,,,,,,,,,,,,,,,,,,,,,,,,,,,,,,,,,,,,
1676056922.313501,1676056922.314982,35.000000,0.000000,4286.538574,4265.384766,4301.922852,4339.102539,4293.846191,4296.153809,4297.948730,4313.717773,4271.794922,4302.563965,4466.153809,4495.384766,4390.641113,4464.487305,0.000000,4.000000,98.000000,,,,0.000000,4.000000,4.000000,4.000000,4.000000,4.000000,4.000000,4.000000,4.000000,4.000000,4.000000,4.000000,4.000000,4.000000,4.000000,100.000000,,,,,,,,,,,,,,,,,,,,,,,,,,,,,,,,,,,,,,,,,,,,,,,,,,,,,,,,,,,,,,,,,,,,,,,,,,,,,,,,,,,,,,
1676056922.321310,1676056922.322891,36.000000,0.000000,4276.410156,4264.102539,4293.846191,4334.102539,4290.128418,4296.794922,4308.974121,4308.717773,4259.743652,4286.922852,4451.794922,4486.282227,4377.563965,4452.692383,0.000000,4.000000,98.000000,,,,0.000000,4.000000,4.000000,4.000000,4.000000,4.000000,4.000000,4.000000,4.000000,4.000000,4.000000,4.000000,4.000000,4.000000,4.000000,100.000000,,,,,,,,,,,,,,,,,,,,,,,,,,,,,,,,,,,,,,,,,,,,,,,,,,,,,,,,,,,,,,,,,,,,,,,,,,,,,,,,,,,,,,
1676056922.329118,1676056922.330699,37.000000,0.000000,4281.794922,4264.743652,4301.794922,4335.128418,4293.717773,4296.922852,4310.769043,4305.769043,4260.128418,4290.897461,4453.846191,4490.641113,4380.000000,4459.230957,0.000000,4.000000,98.000000,,,,0.000000,4.000000,4.000000,4.000000,4.000000,4.000000,4.000000,4.000000,4.000000,4.000000,4.000000,4.000000,4.000000,4.000000,4.000000,100.000000,,,,,,,,,,,,,,,,,,,,,,,,,,,,,,,,,,,,,,,,,,,,,,,,,,,,,,,,,,,,,,,,,,,,,,,,,,,,,,,,,,,,,,
1676056922.336927,1676056922.338608,38.000000,0.000000,4282.563965,4265.000000,4305.384766,4335.897461,4295.000000,4297.436035,4301.153809,4304.743652,4255.769043,4291.282227,4453.461426,4491.282227,4382.692383,4466.025879,0.000000,4.000000,98.000000,,,,0.000000,4.000000,4.000000,4.000000,4.000000,4.000000,4.000000,4.000000,4.000000,4.000000,4.000000,4.000000,4.000000,4.000000,4.000000,100.000000,,,,,,,,,,,,,,,,,,,,,,,,,,,,,,,,,,,,,,,,,,,,,,,,,,,,,,,,,,,,,,,,,,,,,,,,,,,,,,,,,,,,,,
1676056922.344735,1676056922.346416,39.000000,0.000000,4279.871582,4262.307617,4302.179688,4334.102539,4300.384766,4296.282227,4292.692383,4302.692383,4248.461426,4280.384766,4448.205078,4489.743652,4378.846191,4463.846191,0.000000,4.000000,98.000000,,,,0.000000,4.000000,4.000000,4.000000,4.000000,4.000000,4.000000,4.000000,4.000000,4.000000,4.000000,4.000000,4.000000,4.000000,4.000000,100.000000,,,,,,,,,,,,,,,,,,,,,,,,,,,,,,,,,,,,,,,,,,,,,,,,,,,,,,,,,,,,,,,,,,,,,,,,,,,,,,,,,,,,,,
1676056922.352543,1676056922.354324,40.000000,0.000000,4281.538574,4261.410156,4301.538574,4328.589844,4303.717773,4287.820313,4288.461426,4293.077148,4241.410156,4278.205078,4449.358887,4483.717773,4381.538574,4464.358887,0.000000,4.000000,98.000000,,,,0.000000,4.000000,4.000000,4.000000,4.000000,4.000000,4.000000,4.000000,4.000000,4.000000,4.000000,4.000000,4.000000,4.000000,4.000000,100.000000,,,,,,,,,,,,,,,,,,,,,,,,,,,,,,,,,,,,,,,,,,,,,,,,,,,,,,,,,,,,,,,,,,,,,,,,,,,,,,,,,,,,,,
1676056922.360352,1676056922.362133,41.000000,0.000000,4278.974121,4263.717773,4300.128418,4324.358887,4298.461426,4279.615234,4278.974121,4281.025879,4237.948730,4287.820313,4458.333496,4473.974121,4393.589844,4469.743652,0.000000,4.000000,98.000000,,,,0.000000,4.000000,4.000000,4.000000,4.000000,4.000000,4.000000,4.000000,4.000000,4.000000,4.000000,4.000000,4.000000,4.000000,4.000000,100.000000,,,,,,,,,,,,,,,,,,,,,,,,,,,,,,,,,,,,,,,,,,,,,,,,,,,,,,,,,,,,,,,,,,,,,,,,,,,,,,,,,,,,,,
1676056922.368160,1676056922.369941,42.000000,0.000000,4275.641113,4259.102539,4295.000000,4324.871582,4300.897461,4280.897461,4267.948730,4280.128418,4247.307617,4302.051270,4468.846191,4479.102539,4407.051270,4476.153809,0.000000,4.000000,98.000000,,,,0.000000,4.000000,4.000000,4.000000,4.000000,4.000000,4.000000,4.000000,4.000000,4.000000,4.000000,4.000000,4.000000,4.000000,4.000000,100.000000,,,,,,,,,,,,,,,,,,,,,,,,,,,,,,,,,,,,,,,,,,,,,,,,,,,,,,,,,,,,,,,,,,,,,,,,,,,,,,,,,,,,,,
1676056922.375969,1676056922.377650,43.000000,0.000000,4280.128418,4249.102539,4295.769043,4325.000000,4305.641113,4281.922852,4261.282227,4287.692383,4261.025879,4311.410156,4470.641113,4490.256348,4409.743652,4478.077148,0.000000,4.000000,98.000000,,,,0.000000,4.000000,4.000000,4.000000,4.000000,4.000000,4.000000,4.000000,4.000000,4.000000,4.000000,4.000000,4.000000,4.000000,4.000000,100.000000,,,,,,,,,,,,,,,,,,,,,,,,,,,,,,,,,,,,,,,,,,,,,,,,,,,,,,,,,,,,,,,,,,,,,,,,,,,,,,,,,,,,,,
1676056922.383777,1676056922.385458,44.000000,0.000000,4279.743652,4249.102539,4304.102539,4326.538574,4297.563965,4275.128418,4257.820313,4299.230957,4267.051270,4311.666504,4469.487305,4492.179688,4404.230957,4482.307617,0.000000,4.000000,98.000000,,,,0.000000,4.000000,4.000000,4.000000,4.000000,4.000000,4.000000,4.000000,4.000000,4.000000,4.000000,4.000000,4.000000,4.000000,4.000000,100.000000,,,,,,,,,,,,,,,,,,,,,,,,,,,,,,,,,,,,,,,,,,,,,,,,,,,,,,,,,,,,,,,,,,,,,,,,,,,,,,,,,,,,,,
1676056922.391585,1676056922.393167,45.000000,0.000000,4278.205078,4259.487305,4313.717773,4334.743652,4295.128418,4277.051270,4271.922852,4316.666504,4276.922852,4313.461426,4478.077148,4498.077148,4406.538574,4493.717773,0.000000,4.000000,98.000000,,,,0.000000,4.000000,4.000000,4.000000,4.000000,4.000000,4.000000,4.000000,4.000000,4.000000,4.000000,4.000000,4.000000,4.000000,4.000000,100.000000,,,,,,,,,,,,,,,,,,,,,,,,,,,,,,,,,,,,,,,,,,,,,,,,,,,,,,,,,,,,,,,,,,,,,,,,,,,,,,,,,,,,,,
1676056922.399394,1676056922.400975,46.000000,0.000000,4278.717773,4260.641113,4316.282227,4333.974121,4309.102539,4290.128418,4295.897461,4328.077148,4284.230957,4310.256348,4479.230957,4503.974121,4407.820313,4491.666504,0.000000,4.000000,98.000000,,,,0.000000,4.000000,4.000000,4.000000,4.000000,4.000000,4.000000,4.000000,4.000000,4.000000,4.000000,4.000000,4.000000,4.000000,4.000000,100.000000,,,,,,,,,,,,,,,,,1.195770,4.634378,0.478627,0.320427,0.143696,0.473945,3.364237,0.576590,0.442777,0.271772,1.372092,6.528238,1.035967,0.399653,0.164171,0.749184,3.549783,0.871690,0.303609,0.145688,0.208575,3.036331,0.693941,0.197442,0.105730,0.586667,2.323631,0.493489,0.259653,0.065326,1.361787,15.139008,1.572142,0.468988,0.149877,5.725612,8.105310,0.537173,0.615840,0.261290,1.845958,10.786403,0.845733,0.632976,0.325783,2.223935,4.732292,1.039281,0.458225,0.146642,2.751448,4.145083,0.959645,0.534077,0.236479,6.234740,9.266617,1.857565,0.941633,0.277987,2.819256,4.483427,1.274822,0.393616,0.192999,2.327742,4.816150,0.922993,0.308055,0.200861
1676056922.407202,1676056922.408684,47.000000,0.000000,4271.153809,4249.871582,4304.871582,4324.102539,4313.077148,4299.358887,4305.769043,4320.128418,4275.000000,4297.436035,4460.769043,4488.077148,4396.282227,4474.615234,0.000000,4.000000,98.000000,,,,0.000000,4.000000,4.000000,4.000000,4.000000,4.000000,4.000000,4.000000,4.000000,4.000000,4.000000,4.000000,4.000000,4.000000,4.000000,100.000000,,,,,,,,,,,,,,,,,,,,,,,,,,,,,,,,,,,,,,,,,,,,,,,,,,,,,,,,,,,,,,,,,,,,,,,,,,,,,,,,,,,,,,
1676056922.415011,1676056922.416492,48.000000,0.000000,4267.179688,4245.897461,4294.871582,4323.717773,4303.205078,4300.512695,4308.461426,4311.666504,4264.743652,4291.666504,4451.794922,4474.358887,4388.077148,4470.384766,0.000000,4.000000,98.000000,,,,0.000000,4.000000,4.000000,4.000000,4.000000,4.000000,4.000000,4.000000,4.000000,4.000000,4.000000,4.000000,4.000000,4.000000,4.000000,100.000000,,,,,,,,,,,,,,,,,,,,,,,,,,,,,,,,,,,,,,,,,,,,,,,,,,,,,,,,,,,,,,,,,,,,,,,,,,,,,,,,,,,,,,
1676056922.422819,1676056922.424201,49.000000,0.000000,4272.307617,4248.974121,4295.128418,4322.563965,4295.256348,4290.897461,4303.974121,4314.487305,4255.769043,4289.102539,4459.743652,4476.922852,4385.384766,4476.153809,0.000000,4.000000,98.000000,,,,0.000000,4.000000,4.000000,4.000000,4.000000,4.000000,4.000000,4.000000,4.000000,4.000000,4.000000,4.000000,4.000000,4.000000,4.000000,100.000000,,,,,,,,,,,,,,,,,,,,,,,,,,,,,,,,,,,,,,,,,,,,,,,,,,,,,,,,,,,,,,,,,,,,,,,,,,,,,,,,,,,,,,
1676056922.430627,1676056922.432009,50.000000,0.000000,4275.512695,4248.717773,4296.025879,4313.974121,4291.410156,4280.641113,4288.461426,4313.205078,4245.897461,4282.051270,4458.589844,4475.128418,4383.717773,4472.307617,0.000000,4.000000,98.000000,,,,0.000000,4.000000,4.000000,4.000000,4.000000,4.000000,4.000000,4.000000,4.000000,4.000000,4.000000,4.000000,4.000000,4.000000,4.000000,100.000000,,,,,,,,,,,,,,,,,,,,,,,,,,,,,,,,,,,,,,,,,,,,,,,,,,,,,,,,,,,,,,,,,,,,,,,,,,,,,,,,,,,,,,
1676056922.438436,1676056922.439718,51.000000,0.000000,4278.974121,4247.307617,4295.128418,4313.717773,4292.820313,4279.230957,4279.230957,4306.538574,4246.922852,4289.230957,4456.153809,4477.051270,4390.512695,4476.410156,0.000000,4.000000,98.000000,,,,0.000000,4.000000,4.000000,4.000000,4.000000,4.000000,4.000000,4.000000,4.000000,4.000000,4.000000,4.000000,4.000000,4.000000,4.000000,100.000000,,,,,,,,,,,,,,,,,,,,,,,,,,,,,,,,,,,,,,,,,,,,,,,,,,,,,,,,,,,,,,,,,,,,,,,,,,,,,,,,,,,,,,
1676056922.446244,1676056922.447626,52.000000,0.000000,4285.769043,4249.871582,4299.743652,4319.487305,4293.333496,4277.948730,4279.615234,4297.948730,4251.666504,4301.025879,4466.153809,4486.666504,4397.692383,4490.000000,0.000000,4.000000,98.000000,,,,0.000000,4.000000,4.000000,4.000000,4.000000,4.000000,4.000000,4.000000,4.000000,4.000000,4.000000,4.000000,4.000000,4.000000,4.000000,100.000000,,,,,,,,,,,,,,,,,,,,,,,,,,,,,,,,,,,,,,,,,,,,,,,,,,,,,,,,,,,,,,,,,,,,,,,,,,,,,,,,,,,,,,
1676056922.454053,1676056922.455435,53.000000,0.000000,4289.743652,4257.436035,4307.820313,4325.512695,4297.307617,4275.384766,4275.256348,4291.153809,4247.307617,4297.948730,4476.282227,4489.871582,4399.743652,4492.051270,0.000000,4.000000,98.000000,,,,0.000000,4.000000,4.000000,4.000000,4.000000,4.000000,4.000000,4.000000,4.000000,4.000000,4.000000,4.000000,4.000000,4.000000,4.000000,100.000000,,,,,,,,,,,,,,,,,,,,,,,,,,,,,,,,,,,,,,,,,,,,,,,,,,,,,,,,,,,,,,,,,,,,,,,,,,,,,,,,,,,,,,
1676056922.461861,1676056922.463343,54.000000,0.000000,4294.871582,4267.179688,4309.743652,4335.641113,4308.589844,4281.794922,4273.461426,4291.922852,4246.538574,4297.179688,4472.563965,4484.230957,4403.461426,4486.538574,0.000000,4.000000,98.000000,,,,0.000000,4.000000,4.000000,4.000000,4.000000,4.000000,4.000000,4.000000,4.000000,4.000000,4.000000,4.000000,4.000000,4.000000,4.000000,100.000000,,,,,,,,,,,,,,,,,,,,,,,,,,,,,,,,,,,,,,,,,,,,,,,,,,,,,,,,,,,,,,,,,,,,,,,,,,,,,,,,,,,,,,
1676056922.469669,1676056922.471151,55.000000,0.000000,4295.384766,4268.077148,4306.410156,4332.692383,4308.077148,4282.436035,4267.692383,4295.769043,4258.333496,4303.974121,4462.692383,4478.974121,4399.871582,4477.820313,0.000000,4.000000,98.000000,,,,0.000000,4.000000,4.000000,4.000000,4.000000,4.000000,4.000000,4.000000,4.000000,4.000000,4.000000,4.000000,4.000000,4.000000,4.000000,100.000000,,,,,,,,,,,,,,,,,,,,,,,,,,,,,,,,,,,,,,,,,,,,,,,,,,,,,,,,,,,,,,,,,,,,,,,,,,,,,,,,,,,,,,
1676056922.477478,1676056922.479060,56.000000,0.000000,4284.230957,4263.077148,4302.436035,4318.589844,4294.487305,4276.025879,4256.666504,4297.563965,4270.897461,4305.512695,4464.871582,4479.743652,4392.948730,4475.000000,0.000000,4.000000,98.000000,,,,0.000000,4.000000,4.000000,4.000000,4.000000,4.000000,4.000000,4.000000,4.000000,4.000000,4.000000,4.000000,4.000000,4.000000,4.000000,100.000000,,,,,,,,,,,,,,,,,,,,,,,,,,,,,,,,,,,,,,,,,,,,,,,,,,,,,,,,,,,,,,,,,,,,,,,,,,,,,,,,,,,,,,
1676056922.485286,1676056922.486868,57.000000,0.000000,4286.794922,4265.769043,4307.820313,4327.051270,4291.794922,4287.948730,4265.000000,4309.358887,4282.307617,4311.282227,4478.846191,4490.256348,4402.436035,4488.077148,0.000000,4.000000,98.000000,,,,0.000000,4.000000,4.000000,4.000000,4.000000,4.000000,4.000000,4.000000,4.000000,4.000000,4.000000,4.000000,4.000000,4.000000,4.000000,100.000000,,,,,,,,,,,,,,,,,,,,,,,,,,,,,,,,,,,,,,,,,,,,,,,,,,,,,,,,,,,,,,,,,,,,,,,,,,,,,,,,,,,,,,
1676056922.493095,1676056922.494777,58.000000,0.000000,4294.487305,4266.410156,4314.743652,4338.974121,4299.102539,4300.512695,4283.077148,4318.717773,4284.871582,4314.871582,4477.948730,4495.641113,4405.256348,4491.153809,0.000000,4.000000,98.000000,,,,0.000000,4.000000,4.000000,4.000000,4.000000,4.000000,4.000000,4.000000,4.000000,4.000000,4.000000,4.000000,4.000000,4.000000,4.000000,100.000000,,,,,,,,,,,,,,,,,,,,,,,,,,,,,,,,,,,,,,,,,,,,,,,,,,,,,,,,,,,,,,,,,,,,,,,,,,,,,,,,,,,,,,
1676056922.500903,1676056922.502585,59.000000,0.000000,4286.794922,4262.692383,4310.000000,4325.128418,4294.230957,4289.102539,4289.487305,4315.897461,4271.666504,4298.974121,4461.025879,4483.205078,4389.230957,4475.512695,0.000000,4.000000,98.000000,,,,0.000000,4.000000,4.000000,4.000000,4.000000,4.000000,4.000000,4.000000,4.000000,4.000000,4.000000,4.000000,4.000000,4.000000,4.000000,100.000000,,,,,,,,,,,,,,,,,,,,,,,,,,,,,,,,,,,,,,,,,,,,,,,,,,,,,,,,,,,,,,,,,,,,,,,,,,,,,,,,,,,,,,
1676056922.508711,1676056922.510294,60.000000,0.000000,4283.717773,4263.461426,4307.692383,4316.025879,4285.641113,4279.487305,4298.589844,4317.948730,4265.641113,4286.538574,4460.128418,4481.153809,4386.538574,4471.153809,0.000000,4.000000,98.000000,,,,0.000000,4.000000,4.000000,4.000000,4.000000,4.000000,4.000000,4.000000,4.000000,4.000000,4.000000,4.000000,4.000000,4.000000,4.000000,100.000000,,,,,,,,,,,,,,,,,,,,,,,,,,,,,,,,,,,,,,,,,,,,,,,,,,,,,,,,,,,,,,,,,,,,,,,,,,,,,,,,,,,,,,
1676056922.516520,1676056922.518102,61.000000,0.000000,4293.333496,4266.153809,4311.025879,4326.153809,4288.333496,4284.871582,4302.179688,4318.333496,4268.333496,4289.358887,4472.948730,4491.794922,4399.743652,4480.256348,0.000000,4.000000,98.000000,,,,0.000000,4.000000,4.000000,4.000000,4.000000,4.000000,4.000000,4.000000,4.000000,4.000000,4.000000,4.000000,4.000000,4.000000,4.000000,100.000000,,,,,,,,,,,,,,,,,,,,,,,,,,,,,,,,,,,,,,,,,,,,,,,,,,,,,,,,,,,,,,,,,,,,,,,,,,,,,,,,,,,,,,
1676056922.524328,1676056922.525811,62.000000,0.000000,4300.256348,4272.179688,4313.205078,4331.794922,4294.743652,4285.000000,4287.820313,4312.692383,4258.846191,4285.641113,4473.717773,4492.948730,4401.794922,4485.384766,0.000000,4.000000,98.000000,,,,0.000000,4.000000,4.000000,4.000000,4.000000,4.000000,4.000000,4.000000,4.000000,4.000000,4.000000,4.000000,4.000000,4.000000,4.000000,100.000000,,,,,,,,,,,,,,,,,1.312598,4.450490,0.348970,0.382460,0.142091,0.387355,3.355798,0.468519,0.463580,0.285304,1.481238,5.975942,0.932172,0.471725,0.171492,0.692101,3.375803,0.724722,0.286713,0.150847,0.216645,2.949679,0.539805,0.198057,0.117395,0.526717,2.499431,0.423885,0.269969,0.071239,1.279022,15.679458,1.510170,0.568179,0.154611,4.173090,9.010741,0.421310,0.552054,0.261420,1.641104,11.568439,0.554113,0.619955,0.310591,2.464979,4.902792,0.795446,0.485460,0.151535,2.831183,4.266477,0.767682,0.596373,0.239988,5.574438,8.135447,1.672428,1.014492,0.266796,2.951880,4.170749,1.070320,0.415733,0.177250,2.291229,4.740555,0.741397,0.371161,0.220406
1676056922.532136,1676056922.533619,63.000000,0.000000,4305.769043,4282.179688,4319.358887,4335.512695,4297.948730,4280.769043,4278.589844,4308.461426,4246.666504,4278.461426,4470.769043,4492.051270,4396.282227,4496.025879,0.000000,4.000000,98.000000,,,,0.000000,4.000000,4.000000,4.000000,4.000000,4.000000,4.000000,4.000000,4.000000,4.000000,4.000000,4.000000,4.000000,4.000000,4.000000,100.000000,,,,,,,,,,,,,,,,,,,,,,,,,,,,,,,,,,,,,,,,,,,,,,,,,,,,,,,,,,,,,,,,,,,,,,,,,,,,,,,,,,,,,,
1676056922.539945,1676056922.541328,64.000000,0.000000,4316.025879,4284.871582,4325.769043,4342.307617,4297.948730,4279.743652,4272.948730,4296.153809,4241.922852,4278.333496,4474.487305,4494.615234,4402.692383,4502.820313,2508.000000,4.000000,98.000000,,,,0.000000,4.000000,4.000000,4.000000,4.000000,4.000000,4.000000,4.000000,4.000000,4.000000,4.000000,4.000000,4.000000,4.000000,4.000000,100.000000,,,,,,,,,,,,,,,,,,,,,,,,,,,,,,,,,,,,,,,,,,,,,,,,,,,,,,,,,,,,,,,,,,,,,,,,,,,,,,,,,,,,,,
1676056922.547753,1676056922.549136,65.000000,0.000000,4316.666504,4280.384766,4325.256348,4341.282227,4298.205078,4277.179688,4260.384766,4286.153809,4239.230957,4279.743652,4474.871582,4493.974121,4411.025879,4494.615234,2413.000000,4.000000,98.000000,,,,0.000000,4.000000,4.000000,4.000000,4.000000,4.000000,4.000000,4.000000,4.000000,4.000000,4.000000,4.000000,4.000000,4.000000,4.000000,100.000000,,,,,,,,,,,,,,,,,,,,,,,,,,,,,,,,,,,,,,,,,,,,,,,,,,,,,,,,,,,,,,,,,,,,,,,,,,,,,,,,,,,,,,
1676056922.555562,1676056922.556845,66.000000,0.000000,4312.436035,4282.820313,4321.922852,4339.487305,4298.077148,4279.615234,4257.692383,4298.717773,4245.769043,4285.512695,4474.102539,4492.436035,4413.589844,4489.743652,1923.000000,4.000000,98.000000,,,,0.000000,4.000000,4.000000,4.000000,4.000000,4.000000,4.000000,4.000000,4.000000,4.000000,4.000000,4.000000,4.000000,4.000000,4.000000,100.000000,,,,,,,,,,,,,,,,,,,,,,,,,,,,,,,,,,,,,,,,,,,,,,,,,,,,,,,,,,,,,,,,,,,,,,,,,,,,,,,,,,,,,,
1676056922.563370,1676056922.564653,67.000000,0.000000,4313.461426,4283.461426,4319.102539,4339.102539,4298.717773,4285.384766,4262.179688,4312.436035,4262.436035,4297.307617,4477.692383,4495.128418,4410.512695,4489.230957,2246.000000,4.000000,98.000000,,,,0.000000,4.000000,4.000000,4.000000,4.000000,4.000000,4.000000,4.000000,4.000000,4.000000,4.000000,4.000000,4.000000,4.000000,4.000000,100.000000,,,,,,,,,,,,,,,,,,,,,,,,,,,,,,,,,,,,,,,,,,,,,,,,,,,,,,,,,,,,,,,,,,,,,,,,,,,,,,,,,,,,,,
1676056922.571178,1676056922.572362,68.000000,0.000000,4309.358887,4272.820313,4311.025879,4330.256348,4299.615234,4284.358887,4262.436035,4316.410156,4271.794922,4298.589844,4472.179688,4490.000000,4401.282227,4478.974121,2338.000000,4.000000,98.000000,,,,0.000000,4.000000,4.000000,4.000000,4.000000,4.000000,4.000000,4.000000,4.000000,4.000000,4.000000,4.000000,4.000000,4.000000,4.000000,100.000000,,,,,,,,,,,,,,,,,,,,,,,,,,,,,,,,,,,,,,,,,,,,,,,,,,,,,,,,,,,,,,,,,,,,,,,,,,,,,,,,,,,,,,
1676056922.578987,1676056922.580170,69.000000,0.000000,4297.692383,4262.948730,4300.512695,4321.666504,4295.512695,4285.256348,4272.051270,4327.307617,4280.256348,4295.384766,4461.922852,4480.641113,4392.051270,4464.102539,2150.000000,4.000000,98.000000,,,,0.000000,4.000000,4.000000,4.000000,4.000000,4.000000,4.000000,4.000000,4.000000,4.000000,4.000000,4.000000,4.000000,4.000000,4.000000,100.000000,,,,,,,,,,,,,,,,,,,,,,,,,,,,,,,,,,,,,,,,,,,,,,,,,,,,,,,,,,,,,,,,,,,,,,,,,,,,,,,,,,,,,,
1676056922.586795,1676056922.587879,70.000000,0.000000,4291.410156,4260.897461,4296.153809,4321.410156,4290.897461,4295.512695,4291.025879,4331.794922,4285.512695,4294.358887,4459.230957,4476.153809,4387.179688,4457.948730,2319.000000,4.000000,98.000000,,,,0.000000,4.000000,4.000000,4.000000,4.000000,4.000000,4.000000,4.000000,4.000000,4.000000,4.000000,4.000000,4.000000,4.000000,4.000000,100.000000,,,,,,,,,,,,,,,,,,,,,,,,,,,,,,,,,,,,,,,,,,,,,,,,,,,,,,,,,,,,,,,,,,,,,,,,,,,,,,,,,,,,,,
1676056922.594603,1676056922.595687,71.000000,0.000000,4295.641113,4263.846191,4297.307617,4322.563965,4291.153809,4296.922852,4299.615234,4326.282227,4276.282227,4287.948730,4459.358887,4475.512695,4384.102539,4457.563965,2015.000000,4.000000,98.000000,,,,0.000000,4.000000,4.000000,4.000000,4.000000,4.000000,4.000000,4.000000,4.000000,4.000000,4.000000,4.000000,4.000000,4.000000,4.000000,100.000000,,,,,,,,,,,,,,,,,,,,,,,,,,,,,,,,,,,,,,,,,,,,,,,,,,,,,,,,,,,,,,,,,,,,,,,,,,,,,,,,,,,,,,
1676056922.602412,1676056922.603396,72.000000,0.000000,4289.102539,4257.179688,4294.358887,4315.000000,4285.000000,4284.230957,4293.717773,4327.051270,4265.384766,4275.641113,4456.025879,4473.589844,4376.025879,4451.410156,2080.000000,4.000000,98.000000,,,,0.000000,4.000000,4.000000,4.000000,4.000000,4.000000,4.000000,4.000000,4.000000,4.000000,4.000000,4.000000,4.000000,4.000000,4.000000,100.000000,,,,,,,,,,,,,,,,,,,,,,,,,,,,,,,,,,,,,,,,,,,,,,,,,,,,,,,,,,,,,,,,,,,,,,,,,,,,,,,,,,,,,,
1676056922.610220,1676056922.611204,73.000000,0.000000,4278.974121,4250.128418,4290.128418,4310.512695,4276.794922,4276.410156,4282.307617,4323.717773,4256.922852,4264.230957,4453.846191,4471.153809,4372.307617,4446.282227,2411.000000,4.000000,98.000000,,,,0.000000,4.000000,4.000000,4.000000,4.000000,4.000000,4.000000,4.000000,4.000000,4.000000,4.000000,4.000000,4.000000,4.000000,4.000000,100.000000,,,,,,,,,,,,,,,,,,,,,,,,,,,,,,,,,,,,,,,,,,,,,,,,,,,,,,,,,,,,,,,,,,,,,,,,,,,,,,,,,,,,,,
1676056922.618029,1676056922.618913,74.000000,0.000000,4289.871582,4259.871582,4297.563965,4317.051270,4286.794922,4280.897461,4279.743652,4315.128418,4248.589844,4267.307617,4458.717773,4474.487305,4377.051270,4452.820313,2406.000000,4.000000,98.000000,,,,0.000000,4.000000,4.000000,4.000000,4.000000,4.000000,4.000000,4.000000,4.000000,4.000000,4.000000,4.000000,4.000000,4.000000,4.000000,100.000000,,,,,,,,,,,,,,,,,,,,,,,,,,,,,,,,,,,,,,,,,,,,,,,,,,,,,,,,,,,,,,,,,,,,,,,,,,,,,,,,,,,,,,
1676056922.625837,1676056922.626821,75.000000,0.000000,4300.000000,4268.461426,4301.538574,4320.641113,4297.436035,4281.153809,4278.461426,4309.615234,4245.512695,4276.282227,4458.461426,4475.769043,4382.820313,4461.025879,2473.000000,4.000000,98.000000,,,,0.000000,4.000000,4.000000,4.000000,4.000000,4.000000,4.000000,4.000000,4.000000,4.000000,4.000000,4.000000,4.000000,4.000000,4.000000,100.000000,,,,,,,,,,,,,,,,,,,,,,,,,,,,,,,,,,,,,,,,,,,,,,,,,,,,,,,,,,,,,,,,,,,,,,,,,,,,,,,,,,,,,,
1676056922.633645,1676056922.634629,76.000000,0.000000,4296.922852,4262.692383,4295.256348,4318.461426,4294.487305,4278.717773,4268.077148,4301.025879,4247.820313,4278.717773,4459.615234,4474.871582,4388.205078,4460.897461,2815.000000,4.000000,98.000000,,,,0.000000,4.000000,4.000000,4.000000,4.000000,4.000000,4.000000,4.000000,4.000000,4.000000,4.000000,4.000000,4.000000,4.000000,4.000000,100.000000,,,,,,,,,,,,,,,,,,,,,,,,,,,,,,,,,,,,,,,,,,,,,,,,,,,,,,,,,,,,,,,,,,,,,,,,,,,,,,,,,,,,,,
1676056922.641454,1676056922.642538,77.000000,0.000000,4299.102539,4267.307617,4302.179688,4328.589844,4301.410156,4288.077148,4261.282227,4294.102539,4249.487305,4287.692383,4474.487305,4480.256348,4392.436035,4462.820313,3238.000000,4.000000,98.000000,,,,0.000000,4.000000,4.000000,4.000000,4.000000,4.000000,4.000000,4.000000,4.000000,4.000000,4.000000,4.000000,4.000000,4.000000,4.000000,100.000000,,,,,,,,,,,,,,,,,,,,,,,,,,,,,,,,,,,,,,,,,,,,,,,,,,,,,,,,,,,,,,,,,,,,,,,,,,,,,,,,,,,,,,
1676056922.649262,1676056922.650346,78.000000,0.000000,4302.692383,4283.717773,4314.743652,4343.333496,4315.128418,4297.948730,4265.769043,4295.256348,4250.128418,4295.512695,4477.051270,4481.922852,4392.179688,4465.000000,2406.000000,4.000000,98.000000,,,,0.000000,4.000000,4.000000,4.000000,4.000000,4.000000,4.000000,4.000000,4.000000,4.000000,4.000000,4.000000,4.000000,4.000000,4.000000,100.000000,1.000000,100.000000,4.000000,4.000000,4.000000,4.000000,4.000000,4.000000,4.000000,4.000000,4.000000,4.000000,4.000000,4.000000,4.000000,4.000000,1.568292,3.987877,0.278593,0.434943,0.147192,0.362960,3.140743,0.431441,0.487545,0.303550,1.725436,5.029673,0.824634,0.552762,0.188097,0.718426,2.972611,0.608404,0.270906,0.160751,0.338457,2.752249,0.405665,0.195985,0.135862,0.477117,2.739768,0.376436,0.273358,0.078395,1.184286,15.707466,1.299239,0.694947,0.160502,3.000252,10.196621,0.333206,0.567026,0.276549,1.424327,13.238608,0.419494,0.624625,0.291380,2.649178,5.683269,0.664711,0.514552,0.160059,2.854539,4.337553,0.610226,0.656376,0.248026,5.214424,7.288091,1.549889,1.176004,0.290121,2.942200,3.750065,0.911522,0.447232,0.170879,2.420884,4.344625,0.613100,0.443109,0.240262
1676056922.657071,1676056922.658254,79.000000,0.000000,4297.563965,4280.256348,4309.743652,4337.948730,4313.717773,4295.000000,4264.615234,4297.563965,4256.025879,4287.563965,4460.128418,4475.000000,4386.794922,4458.333496,2473.000000,4.000000,98.000000,,,,0.000000,4.000000,4.000000,4.000000,4.000000,4.000000,4.000000,4.000000,4.000000,4.000000,4.000000,4.000000,4.000000,4.000000,4.000000,100.000000,,,,,,,,,,,,,,,,,,,,,,,,,,,,,,,,,,,,,,,,,,,,,,,,,,,,,,,,,,,,,,,,,,,,,,,,,,,,,,,,,,,,,,
1676056922.664879,1676056922.666063,80.000000,0.000000,4291.666504,4266.666504,4298.077148,4324.871582,4308.846191,4293.333496,4261.794922,4305.769043,4264.487305,4285.256348,4456.410156,4468.589844,4383.974121,4447.820313,2815.000000,4.000000,98.000000,,,,0.000000,4.000000,4.000000,4.000000,4.000000,4.000000,4.000000,4.000000,4.000000,4.000000,4.000000,4.000000,4.000000,4.000000,4.000000,100.000000,,,,,,,,,,,,,,,,,,,,,,,,,,,,,,,,,,,,,,,,,,,,,,,,,,,,,,,,,,,,,,,,,,,,,,,,,,,,,,,,,,,,,,
1676056922.672687,1676056922.673971,81.000000,0.000000,4283.333496,4262.820313,4293.205078,4320.000000,4305.512695,4296.666504,4275.128418,4318.589844,4268.717773,4292.692383,4463.589844,4462.820313,4378.333496,4441.794922,3238.000000,4.000000,98.000000,,,,0.000000,4.000000,4.000000,4.000000,4.000000,4.000000,4.000000,4.000000,4.000000,4.000000,4.000000,4.000000,4.000000,4.000000,4.000000,100.000000,,,,,,,,,,,,,,,,,,,,,,,,,,,,,,,,,,,,,,,,,,,,,,,,,,,,,,,,,,,,,,,,,,,,,,,,,,,,,,,,,,,,,,
1676056922.680496,1676056922.681780,82.000000,0.000000,4275.256348,4262.051270,4292.948730,4318.846191,4300.384766,4291.282227,4293.717773,4319.358887,4267.948730,4286.538574,4457.820313,4458.717773,4369.871582,4442.948730,2406.000000,4.000000,98.000000,,,,0.000000,4.000000,4.000000,4.000000,4.000000,4.000000,4.000000,4.000000,4.000000,4.000000,4.000000,4.000000,4.000000,4.000000,4.000000,100.000000,,,,,,,,,,,,,,,,,,,,,,,,,,,,,,,,,,,,,,,,,,,,,,,,,,,,,,,,,,,,,,,,,,,,,,,,,,,,,,,,,,,,,,
1676056922.688304,1676056922.689688,83.000000,0.000000,4279.358887,4263.077148,4299.102539,4318.846191,4299.743652,4281.025879,4300.128418,4311.282227,4264.871582,4277.563965,4454.615234,4467.051270,4372.436035,4447.051270,2473.000000,4.000000,98.000000,,,,0.000000,4.000000,4.000000,4.000000,4.000000,4.000000,4.000000,4.000000,4.000000,4.000000,4.000000,4.000000,4.000000,4.000000,4.000000,100.000000,,,,,,,,,,,,,,,,,,,,,,,,,,,,,,,,,,,,,,,,,,,,,,,,,,,,,,,,,,,,,,,,,,,,,,,,,,,,,,,,,,,,,,
1676056922.696113,1676056922.697496,84.000000,0.000000,4285.128418,4264.230957,4304.743652,4318.333496,4298.077148,4280.897461,4291.794922,4310.256348,4256.282227,4273.717773,4460.256348,4475.384766,4376.794922,4446.666504,2815.000000,4.000000,98.000000,,,,0.000000,4.000000,4.000000,4.000000,4.000000,4.000000,4.000000,4.000000,4.000000,4.000000,4.000000,4.000000,4.000000,4.000000,4.000000,100.000000,,,,,,,,,,,,,,,,,,,,,,,,,,,,,,,,,,,,,,,,,,,,,,,,,,,,,,,,,,,,,,,,,,,,,,,,,,,,,,,,,,,,,,
1676056922.703921,1676056922.705205,85.000000,0.000000,4285.128418,4262.563965,4305.512695,4317.948730,4295.000000,4286.282227,4284.358887,4307.820313,4247.179688,4266.025879,4460.897461,4474.102539,4371.794922,4448.461426,3238.000000,4.000000,98.000000,,,,0.000000,4.000000,4.000000,4.000000,4.000000,4.000000,4.000000,4.000000,4.000000,4.000000,4.000000,4.000000,4.000000,4.000000,4.000000,100.000000,,,,,,,,,,,,,,,,,,,,,,,,,,,,,,,,,,,,,,,,,,,,,,,,,,,,,,,,,,,,,,,,,,,,,,,,,,,,,,,,,,,,,,
1676056922.711729,1676056922.713013,86.000000,0.000000,4285.128418,4264.358887,4306.666504,4318.461426,4296.025879,4283.077148,4278.974121,4300.384766,4243.205078,4263.589844,4455.769043,4475.384766,4370.512695,4453.974121,2406.000000,4.000000,98.000000,,,,0.000000,4.000000,4.000000,4.000000,4.000000,4.000000,4.000000,4.000000,4.000000,4.000000,4.000000,4.000000,4.000000,4.000000,4.000000,100.000000,,,,,,,,,,,,,,,,,,,,,,,,,,,,,,,,,,,,,,,,,,,,,,,,,,,,,,,,,,,,,,,,,,,,,,,,,,,,,,,,,,,,,,
1676056922.719538,1676056922.720722,87.000000,0.000000,4288.846191,4268.589844,4311.794922,4322.179688,4297.436035,4276.666504,4268.717773,4292.051270,4243.205078,4274.871582,4458.461426,4478.461426,4385.256348,4464.102539,2473.000000,4.000000,98.000000,,,,0.000000,4.000000,4.000000,4.000000,4.000000,4.000000,4.000000,4.000000,4.000000,4.000000,4.000000,4.000000,4.000000,4.000000,4.000000,100.000000,,,,,,,,,,,,,,,,,,,,,,,,,,,,,,,,,,,,,,,,,,,,,,,,,,,,,,,,,,,,,,,,,,,,,,,,,,,,,,,,,,,,,,
1676056922.727346,1676056922.728530,88.000000,0.000000,4295.000000,4269.102539,4318.974121,4321.666504,4298.205078,4279.615234,4261.922852,4283.717773,4244.102539,4285.000000,4469.615234,4478.333496,4396.794922,4473.461426,2815.000000,4.000000,98.000000,,,,0.000000,4.000000,4.000000,4.000000,4.000000,4.000000,4.000000,4.000000,4.000000,4.000000,4.000000,4.000000,4.000000,4.000000,4.000000,100.000000,,,,,,,,,,,,,,,,,,,,,,,,,,,,,,,,,,,,,,,,,,,,,,,,,,,,,,,,,,,,,,,,,,,,,,,,,,,,,,,,,,,,,,
1676056922.735155,1676056922.736239,89.000000,0.000000,4293.974121,4267.307617,4322.179688,4316.025879,4300.128418,4284.102539,4264.615234,4283.717773,4247.179688,4285.256348,4472.820313,4480.000000,4396.025879,4470.641113,3238.000000,4.000000,98.000000,,,,0.000000,4.000000,4.000000,4.000000,4.000000,4.000000,4.000000,4.000000,4.000000,4.000000,4.000000,4.000000,4.000000,4.000000,4.000000,100.000000,,,,,,,,,,,,,,,,,,,,,,,,,,,,,,,,,,,,,,,,,,,,,,,,,,,,,,,,,,,,,,,,,,,,,,,,,,,,,,,,,,,,,,
1676056922.742963,1676056922.744047,90.000000,0.000000,4281.794922,4254.743652,4313.846191,4309.871582,4295.769043,4283.717773,4266.794922,4293.846191,4257.051270,4281.282227,4460.512695,4478.846191,4387.436035,4456.666504,2406.000000,4.000000,98.000000,,,,0.000000,4.000000,4.000000,4.000000,4.000000,4.000000,4.000000,4.000000,4.000000,4.000000,4.000000,4.000000,4.000000,4.000000,4.000000,100.000000,,,,,,,,,,,,,,,,,,,,,,,,,,,,,,,,,,,,,,,,,,,,,,,,,,,,,,,,,,,,,,,,,,,,,,,,,,,,,,,,,,,,,,
1676056922.750771,1676056922.751756,91.000000,0.000000,4264.487305,4229.871582,4293.205078,4297.563965,4282.948730,4280.256348,4261.922852,4299.743652,4266.282227,4279.102539,4447.692383,4463.333496,4367.436035,4442.436035,2473.000000,4.000000,98.000000,,,,0.000000,4.000000,4.000000,4.000000,4.000000,4.000000,4.000000,4.000000,4.000000,4.000000,4.000000,4.000000,4.000000,4.000000,4.000000,100.000000,,,,,,,,,,,,,,,,,,,,,,,,,,,,,,,,,,,,,,,,,,,,,,,,,,,,,,,,,,,,,,,,,,,,,,,,,,,,,,,,,,,,,,
1676056922.758580,1676056922.759564,92.000000,0.000000,4252.179688,4220.641113,4281.666504,4284.615234,4277.563965,4280.512695,4266.025879,4307.692383,4272.436035,4279.615234,4448.333496,4451.922852,4355.384766,4435.256348,2815.000000,4.000000,98.000000,,,,0.000000,4.000000,4.000000,4.000000,4.000000,4.000000,4.000000,4.000000,4.000000,4.000000,4.000000,4.000000,4.000000,4.000000,4.000000,100.000000,,,,,,,,,,,,,,,,,,,,,,,,,,,,,,,,,,,,,,,,,,,,,,,,,,,,,,,,,,,,,,,,,,,,,,,,,,,,,,,,,,,,,,
1676056922.766388,1676056922.767273,93.000000,0.000000,4254.358887,4230.000000,4287.563965,4287.179688,4285.512695,4286.410156,4283.974121,4327.179688,4284.743652,4280.897461,4457.820313,4463.205078,4368.717773,4438.589844,3238.000000,4.000000,98.000000,,,,0.000000,4.000000,4.000000,4.000000,4.000000,4.000000,4.000000,4.000000,4.000000,4.000000,4.000000,4.000000,4.000000,4.000000,4.000000,100.000000,,,,,,,,,,,,,,,,,,,,,,,,,,,,,,,,,,,,,,,,,,,,,,,,,,,,,,,,,,,,,,,,,,,,,,,,,,,,,,,,,,,,,,
1676056922.774196,1676056922.775181,94.000000,0.000000,4264.230957,4240.384766,4298.589844,4299.871582,4295.256348,4287.948730,4299.230957,4331.666504,4289.743652,4282.820313,4468.974121,4478.717773,4385.384766,4450.897461,2406.000000,4.000000,98.000000,,,,0.000000,4.000000,4.000000,4.000000,4.000000,4.000000,4.000000,4.000000,4.000000,4.000000,4.000000,4.000000,4.000000,4.000000,4.000000,100.000000,,,,,,,,,,,,,,,,,1.970796,3.289180,0.270025,0.459308,0.159061,0.431312,2.689397,0.456178,0.504542,0.320230,2.093950,3.842145,0.730264,0.623970,0.207494,0.855351,2.401856,0.536595,0.258869,0.173485,0.565797,2.504525,0.316415,0.200217,0.156943,0.430825,3.079066,0.372856,0.273007,0.086306,1.085011,15.542575,1.037258,0.827670,0.165582,2.240210,11.351499,0.282200,0.635185,0.292242,1.255260,15.090410,0.414841,0.642202,0.265575,2.717729,6.643974,0.640158,0.538696,0.168479,2.781906,4.301111,0.532773,0.688390,0.255917,5.197841,6.896070,1.588099,1.387600,0.340595,2.817167,3.333158,0.814581,0.468472,0.170100,2.582433,3.738686,0.554311,0.501078,0.254772
1676056922.782005,1676056922.782990,95.000000,0.000000,4268.589844,4247.436035,4307.436035,4308.846191,4297.436035,4281.666504,4295.769043,4317.051270,4270.128418,4282.563965,4472.948730,4481.922852,4386.666504,4459.102539,2473.000000,4.000000,98.000000,,,,0.000000,4.000000,4.000000,4.000000,4.000000,4.000000,4.000000,4.000000,4.000000,4.000000,4.000000,4.000000,4.000000,4.000000,4.000000,100.000000,,,,,,,,,,,,,,,,,,,,,,,,,,,,,,,,,,,,,,,,,,,,,,,,,,,,,,,,,,,,,,,,,,,,,,,,,,,,,,,,,,,,,,
1676056922.789813,1676056922.790898,96.000000,0.000000,4268.846191,4249.358887,4310.512695,4314.487305,4296.666504,4277.692383,4283.205078,4311.794922,4251.153809,4279.615234,4463.589844,4476.538574,4382.307617,4458.077148,2815.000000,4.000000,98.000000,,,,0.000000,4.000000,4.000000,4.000000,4.000000,4.000000,4.000000,4.000000,4.000000,4.000000,4.000000,4.000000,4.000000,4.000000,4.000000,100.000000,,,,,,,,,,,,,,,,,,,,,,,,,,,,,,,,,,,,,,,,,,,,,,,,,,,,,,,,,,,,,,,,,,,,,,,,,,,,,,,,,,,,,,
1676056922.797622,1676056922.798707,97.000000,0.000000,4268.974121,4247.436035,4301.922852,4308.717773,4296.922852,4277.563965,4276.538574,4308.077148,4242.051270,4270.512695,4452.692383,4469.871582,4375.641113,4451.666504,3238.000000,4.000000,98.000000,,,,0.000000,4.000000,4.000000,4.000000,4.000000,4.000000,4.000000,4.000000,4.000000,4.000000,4.000000,4.000000,4.000000,4.000000,4.000000,100.000000,,,,,,,,,,,,,,,,,,,,,,,,,,,,,,,,,,,,,,,,,,,,,,,,,,,,,,,,,,,,,,,,,,,,,,,,,,,,,,,,,,,,,,
1676056922.805430,1676056922.806615,98.000000,0.000000,4264.615234,4250.000000,4295.897461,4297.307617,4296.025879,4277.436035,4270.897461,4296.153809,4231.666504,4261.025879,4454.487305,4468.589844,4372.692383,4446.025879,2406.000000,4.000000,98.000000,,,,0.000000,4.000000,4.000000,4.000000,4.000000,4.000000,4.000000,4.000000,4.000000,4.000000,4.000000,4.000000,4.000000,4.000000,4.000000,100.000000,,,,,,,,,,,,,,,,,,,,,,,,,,,,,,,,,,,,,,,,,,,,,,,,,,,,,,,,,,,,,,,,,,,,,,,,,,,,,,,,,,,,,,
1676056922.813238,1676056922.814423,99.000000,0.000000,4265.000000,4253.717773,4304.358887,4300.256348,4296.538574,4283.077148,4267.051270,4288.077148,4233.589844,4269.230957,4461.538574,4474.743652,4381.153809,4449.743652,2473.000000,4.000000,98.000000,,,,0.000000,4.000000,4.000000,4.000000,4.000000,4.000000,4.000000,4.000000,4.000000,4.000000,4.000000,4.000000,4.000000,4.000000,4.000000,100.000000,,,,,,,,,,,,,,,,,,,,,,,,,,,,,,,,,,,,,,,,,,,,,,,,,,,,,,,,,,,,,,,,,,,,,,,,,,,,,,,,,,,,,,
1676056922.821047,1676056922.822332,100.000000,0.000000,4272.307617,4251.153809,4311.666504,4309.743652,4298.333496,4290.512695,4264.230957,4286.794922,4245.769043,4282.051270,4460.128418,4475.769043,4386.025879,4455.641113,2815.000000,4.000000,98.000000,,,,0.000000,4.000000,4.000000,4.000000,4.000000,4.000000,4.000000,4.000000,4.000000,4.000000,4.000000,4.000000,4.000000,4.000000,4.000000,100.000000,,,,,,,,,,,,,,,,,,,,,,,,,,,,,,,,,,,,,,,,,,,,,,,,,,,,,,,,,,,,,,,,,,,,,,,,,,,,,,,,,,,,,,
1676056922.828855,1676056922.830140,101.000000,0.000000,4273.974121,4252.307617,4311.153809,4309.230957,4299.358887,4291.410156,4261.410156,4292.051270,4255.641113,4281.025879,4466.153809,4474.615234,4381.025879,4459.871582,3238.000000,4.000000,98.000000,,,,0.000000,4.000000,4.000000,4.000000,4.000000,4.000000,4.000000,4.000000,4.000000,4.000000,4.000000,4.000000,4.000000,4.000000,4.000000,100.000000,,,,,,,,,,,,,,,,,,,,,,,,,,,,,,,,,,,,,,,,,,,,,,,,,,,,,,,,,,,,,,,,,,,,,,,,,,,,,,,,,,,,,,
1676056922.836663,1676056922.838049,102.000000,0.000000,4268.846191,4253.717773,4306.794922,4300.256348,4295.384766,4289.358887,4267.948730,4309.230957,4273.589844,4278.717773,4472.820313,4480.641113,4375.641113,4457.948730,2406.000000,4.000000,98.000000,,,,0.000000,4.000000,4.000000,4.000000,4.000000,4.000000,4.000000,4.000000,4.000000,4.000000,4.000000,4.000000,4.000000,4.000000,4.000000,100.000000,,,,,,,,,,,,,,,,,,,,,,,,,,,,,,,,,,,,,,,,,,,,,,,,,,,,,,,,,,,,,,,,,,,,,,,,,,,,,,,,,,,,,,
1676056922.844472,1676056922.845857,103.000000,0.000000,4256.410156,4243.205078,4293.461426,4288.461426,4283.461426,4284.871582,4280.384766,4325.641113,4290.128418,4283.717773,4462.563965,4476.410156,4370.897461,4445.128418,2473.000000,4.000000,98.000000,,,,0.000000,4.000000,4.000000,4.000000,4.000000,4.000000,4.000000,4.000000,4.000000,4.000000,4.000000,4.000000,4.000000,4.000000,4.000000,100.000000,,,,,,,,,,,,,,,,,,,,,,,,,,,,,,,,,,,,,,,,,,,,,,,,,,,,,,,,,,,,,,,,,,,,,,,,,,,,,,,,,,,,,,
1676056922.852280,1676056922.853765,104.000000,0.000000,4242.436035,4227.563965,4277.307617,4277.179688,4270.000000,4278.717773,4283.717773,4328.974121,4287.948730,4284.102539,4452.051270,4459.487305,4363.589844,4432.051270,2815.000000,4.000000,98.000000,,,,0.000000,4.000000,4.000000,4.000000,4.000000,4.000000,4.000000,4.000000,4.000000,4.000000,4.000000,4.000000,4.000000,4.000000,4.000000,100.000000,,,,,,,,,,,,,,,,,,,,,,,,,,,,,,,,,,,,,,,,,,,,,,,,,,,,,,,,,,,,,,,,,,,,,,,,,,,,,,,,,,,,,,
1676056922.860089,1676056922.861574,105.000000,0.000000,4238.589844,4224.102539,4273.333496,4274.230957,4262.948730,4275.384766,4281.666504,4328.717773,4281.025879,4277.692383,4455.641113,4459.487305,4364.102539,4434.871582,3238.000000,4.000000,98.000000,,,,0.000000,4.000000,4.000000,4.000000,4.000000,4.000000,4.000000,4.000000,4.000000,4.000000,4.000000,4.000000,4.000000,4.000000,4.000000,100.000000,,,,,,,,,,,,,,,,,,,,,,,,,,,,,,,,,,,,,,,,,,,,,,,,,,,,,,,,,,,,,,,,,,,,,,,,,,,,,,,,,,,,,,
1676056922.867897,1676056922.869482,106.000000,0.000000,4248.589844,4236.794922,4284.615234,4282.948730,4262.948730,4275.641113,4283.974121,4328.589844,4274.743652,4277.179688,4462.179688,4473.846191,4372.051270,4446.153809,2406.000000,4.000000,98.000000,,,,0.000000,4.000000,4.000000,4.000000,4.000000,4.000000,4.000000,4.000000,4.000000,4.000000,4.000000,4.000000,4.000000,4.000000,4.000000,100.000000,,,,,,,,,,,,,,,,,,,,,,,,,,,,,,,,,,,,,,,,,,,,,,,,,,,,,,,,,,,,,,,,,,,,,,,,,,,,,,,,,,,,,,
1676056922.875705,1676056922.877291,107.000000,0.000000,4259.487305,4247.692383,4296.410156,4294.230957,4269.487305,4276.922852,4283.974121,4328.205078,4267.307617,4277.051270,4465.256348,4478.846191,4376.282227,4448.333496,2473.000000,4.000000,98.000000,,,,0.000000,4.000000,4.000000,4.000000,4.000000,4.000000,4.000000,4.000000,4.000000,4.000000,4.000000,4.000000,4.000000,4.000000,4.000000,100.000000,,,,,,,,,,,,,,,,,,,,,,,,,,,,,,,,,,,,,,,,,,,,,,,,,,,,,,,,,,,,,,,,,,,,,,,,,,,,,,,,,,,,,,
1676056922.883514,1676056922.885099,108.000000,0.000000,4264.102539,4251.153809,4298.974121,4297.948730,4277.563965,4279.487305,4281.153809,4320.769043,4261.410156,4268.589844,4464.358887,4475.512695,4377.692383,4444.102539,2815.000000,4.000000,98.000000,,,,0.000000,4.000000,4.000000,4.000000,4.000000,4.000000,4.000000,4.000000,4.000000,4.000000,4.000000,4.000000,4.000000,4.000000,4.000000,100.000000,,,,,,,,,,,,,,,,,,,,,,,,,,,,,,,,,,,,,,,,,,,,,,,,,,,,,,,,,,,,,,,,,,,,,,,,,,,,,,,,,,,,,,
1676056922.891322,1676056922.892907,109.000000,0.000000,4265.512695,4250.897461,4298.077148,4298.846191,4283.333496,4280.384766,4276.922852,4302.820313,4251.922852,4260.641113,4459.615234,4475.256348,4376.666504,4443.846191,3238.000000,4.000000,98.000000,,,,0.000000,4.000000,4.000000,4.000000,4.000000,4.000000,4.000000,4.000000,4.000000,4.000000,4.000000,4.000000,4.000000,4.000000,4.000000,100.000000,,,,,,,,,,,,,,,,,,,,,,,,,,,,,,,,,,,,,,,,,,,,,,,,,,,,,,,,,,,,,,,,,,,,,,,,,,,,,,,,,,,,,,
1676056922.899130,1676056922.900616,110.000000,0.000000,4265.128418,4251.538574,4303.974121,4307.563965,4289.871582,4281.922852,4275.384766,4293.205078,4242.179688,4263.461426,4460.897461,4474.743652,4375.641113,4447.051270,2406.000000,4.000000,98.000000,,,,0.000000,4.000000,4.000000,4.000000,4.000000,4.000000,4.000000,4.000000,4.000000,4.000000,4.000000,4.000000,4.000000,4.000000,4.000000,100.000000,,,,,,,,,,,,,,,,,2.478030,2.530083,0.319743,0.446194,0.176269,0.629184,2.105218,0.531250,0.503047,0.328327,2.495121,2.675612,0.673660,0.667060,0.222164,1.075365,1.811484,0.527044,0.248778,0.187897,0.845149,2.262972,0.288159,0.215492,0.176013,0.382419,3.487274,0.419214,0.272885,0.095862,0.999340,15.498115,0.806780,0.937302,0.167630,1.841606,12.170118,0.269733,0.712000,0.295267,1.126008,16.403154,0.471889,0.658043,0.235037,2.634030,7.366313,0.672110,0.546500,0.175811,2.594627,4.117537,0.547698,0.672613,0.262240,5.370282,6.861267,1.787041,1.573173,0.401480,2.625316,3.044743,0.778743,0.460767,0.172187,2.684705,3.107376,0.568116,0.529462,0.260286
1676056922.906939,1676056922.908524,111.000000,0.000000,4265.256348,4257.436035,4309.487305,4317.051270,4296.794922,4289.230957,4273.974121,4293.589844,4241.025879,4267.436035,4463.717773,4472.179688,4376.666504,4447.179688,2473.000000,4.000000,98.000000,,,,0.000000,4.000000,4.000000,4.000000,4.000000,4.000000,4.000000,4.000000,4.000000,4.000000,4.000000,4.000000,4.000000,4.000000,4.000000,100.000000,,,,,,,,,,,,,,,,,,,,,,,,,,,,,,,,,,,,,,,,,,,,,,,,,,,,,,,,,,,,,,,,,,,,,,,,,,,,,,,,,,,,,,
1676056922.914747,1676056922.916333,112.000000,0.000000,4264.615234,4258.846191,4306.282227,4312.179688,4298.589844,4296.922852,4268.077148,4290.512695,4250.128418,4266.666504,4462.563965,4474.102539,4374.230957,4445.000000,2815.000000,4.000000,98.000000,,,,0.000000,4.000000,4.000000,4.000000,4.000000,4.000000,4.000000,4.000000,4.000000,4.000000,4.000000,4.000000,4.000000,4.000000,4.000000,100.000000,,,,,,,,,,,,,,,,,,,,,,,,,,,,,,,,,,,,,,,,,,,,,,,,,,,,,,,,,,,,,,,,,,,,,,,,,,,,,,,,,,,,,,
1676056922.922556,1676056922.924241,113.000000,0.000000,4260.641113,4253.846191,4298.589844,4300.000000,4295.384766,4294.102539,4270.128418,4295.769043,4265.512695,4273.846191,4460.128418,4477.692383,4371.410156,4439.102539,3238.000000,4.000000,98.000000,,,,0.000000,4.000000,4.000000,4.000000,4.000000,4.000000,4.000000,4.000000,4.000000,4.000000,4.000000,4.000000,4.000000,4.000000,4.000000,100.000000,,,,,,,,,,,,,,,,,,,,,,,,,,,,,,,,,,,,,,,,,,,,,,,,,,,,,,,,,,,,,,,,,,,,,,,,,,,,,,,,,,,,,,
1676056922.930364,1676056922.932050,114.000000,0.000000,4251.410156,4243.589844,4288.846191,4294.230957,4290.897461,4285.000000,4281.282227,4313.077148,4279.615234,4280.512695,4452.820313,4476.666504,4375.256348,4431.153809,2406.000000,4.000000,98.000000,,,,0.000000,4.000000,4.000000,4.000000,4.000000,4.000000,4.000000,4.000000,4.000000,4.000000,4.000000,4.000000,4.000000,4.000000,4.000000,100.000000,,,,,,,,,,,,,,,,,,,,,,,,,,,,,,,,,,,,,,,,,,,,,,,,,,,,,,,,,,,,,,,,,,,,,,,,,,,,,,,,,,,,,,
1676056922.938172,1676056922.939858,115.000000,0.000000,4244.615234,4236.794922,4278.205078,4291.922852,4282.692383,4279.743652,4283.846191,4323.589844,4281.025879,4271.538574,4448.589844,4472.051270,4376.410156,4424.230957,2473.000000,4.000000,98.000000,,,,0.000000,4.000000,4.000000,4.000000,4.000000,4.000000,4.000000,4.000000,4.000000,4.000000,4.000000,4.000000,4.000000,4.000000,4.000000,100.000000,,,,,,,,,,,,,,,,,,,,,,,,,,,,,,,,,,,,,,,,,,,,,,,,,,,,,,,,,,,,,,,,,,,,,,,,,,,,,,,,,,,,,,
1676056922.945981,1676056922.947567,116.000000,0.000000,4247.179688,4242.436035,4277.051270,4289.871582,4277.051270,4278.589844,4279.615234,4324.871582,4274.615234,4264.102539,4456.538574,4471.538574,4373.333496,4426.794922,2815.000000,4.000000,98.000000,,,,0.000000,4.000000,4.000000,4.000000,4.000000,4.000000,4.000000,4.000000,4.000000,4.000000,4.000000,4.000000,4.000000,4.000000,4.000000,100.000000,,,,,,,,,,,,,,,,,,,,,,,,,,,,,,,,,,,,,,,,,,,,,,,,,,,,,,,,,,,,,,,,,,,,,,,,,,,,,,,,,,,,,,
1676056922.953789,1676056922.955375,117.000000,0.000000,4248.846191,4252.307617,4287.179688,4294.230957,4277.436035,4278.589844,4282.436035,4324.230957,4272.692383,4271.282227,4465.512695,4478.589844,4387.692383,4438.589844,3238.000000,4.000000,98.000000,1,1,1,0.000000,4.000000,4.000000,4.000000,4.000000,4.000000,4.000000,4.000000,4.000000,4.000000,4.000000,4.000000,4.000000,4.000000,4.000000,100.000000,,,,,,,,,,,,,,,,,,,,,,,,,,,,,,,,,,,,,,,,,,,,,,,,,,,,,,,,,,,,,,,,,,,,,,,,,,,,,,,,,,,,,,
1676056922.961598,1676056922.963084,118.000000,0.000000,4245.000000,4248.077148,4284.743652,4292.820313,4274.358887,4276.153809,4279.230957,4313.077148,4264.743652,4270.769043,4460.641113,4476.922852,4397.692383,4435.512695,2406.000000,4.000000,98.000000,,,,0.000000,4.000000,4.000000,4.000000,4.000000,4.000000,4.000000,4.000000,4.000000,4.000000,4.000000,4.000000,4.000000,4.000000,4.000000,100.000000,,,,,,,,,,,,,,,,,,,,,,,,,,,,,,,,,,,,,,,,,,,,,,,,,,,,,,,,,,,,,,,,,,,,,,,,,,,,,,,,,,,,,,
1676056922.969406,1676056922.970892,119.000000,0.000000,4254.871582,4249.102539,4284.230957,4291.153809,4278.974121,4283.974121,4278.589844,4306.153809,4254.102539,4267.307617,4461.794922,4477.051270,4392.692383,4432.948730,2473.000000,4.000000,98.000000,,,,0.000000,4.000000,4.000000,4.000000,4.000000,4.000000,4.000000,4.000000,4.000000,4.000000,4.000000,4.000000,4.000000,4.000000,4.000000,100.000000,,,,,,,,,,,,,,,,,,,,,,,,,,,,,,,,,,,,,,,,,,,,,,,,,,,,,,,,,,,,,,,,,,,,,,,,,,,,,,,,,,,,,,
1676056922.977214,1676056922.978601,120.000000,0.000000,4269.487305,4260.128418,4296.922852,4299.615234,4290.256348,4296.922852,4286.666504,4308.589844,4250.128418,4268.077148,4470.897461,4484.743652,4391.153809,4441.282227,2815.000000,4.000000,98.000000,,,,0.000000,4.000000,4.000000,4.000000,4.000000,4.000000,4.000000,4.000000,4.000000,4.000000,4.000000,4.000000,4.000000,4.000000,4.000000,100.000000,,,,,,,,,,,,,,,,,,,,,,,,,,,,,,,,,,,,,,,,,,,,,,,,,,,,,,,,,,,,,,,,,,,,,,,,,,,,,,,,,,,,,,
1676056922.985023,1676056922.986409,121.000000,0.000000,4260.897461,4247.436035,4288.077148,4292.692383,4281.794922,4284.487305,4270.641113,4288.205078,4234.487305,4248.461426,4453.589844,4467.436035,4381.153809,4427.948730,3238.000000,4.000000,98.000000,,,,0.000000,4.000000,4.000000,4.000000,4.000000,4.000000,4.000000,4.000000,4.000000,4.000000,4.000000,4.000000,4.000000,4.000000,4.000000,100.000000,,,,,,,,,,,,,,,,,,,,,,,,,,,,,,,,,,,,,,,,,,,,,,,,,,,,,,,,,,,,,,,,,,,,,,,,,,,,,,,,,,,,,,
1676056922.992831,1676056922.994118,122.000000,0.000000,4262.563965,4248.846191,4286.153809,4295.384766,4279.487305,4277.051270,4259.743652,4272.820313,4228.846191,4250.128418,4447.692383,4461.153809,4381.666504,4422.563965,2406.000000,4.000000,98.000000,,,,0.000000,4.000000,4.000000,4.000000,4.000000,4.000000,4.000000,4.000000,4.000000,4.000000,4.000000,4.000000,4.000000,4.000000,4.000000,100.000000,,,,,,,,,,,,,,,,,,,,,,,,,,,,,,,,,,,,,,,,,,,,,,,,,,,,,,,,,,,,,,,,,,,,,,,,,,,,,,,,,,,,,,
1676056923.000640,1676056923.002026,123.000000,0.000000,4281.538574,4271.538574,4304.487305,4316.922852,4295.128418,4292.179688,4276.025879,4289.743652,4253.205078,4283.077148,4468.461426,4485.128418,4398.589844,4441.153809,2473.000000,4.000000,98.000000,,,,0.000000,4.000000,4.000000,4.000000,4.000000,4.000000,4.000000,4.000000,4.000000,4.000000,4.000000,4.000000,4.000000,4.000000,4.000000,100.000000,,,,,,,,,,,,,,,,,,,,,,,,,,,,,,,,,,,,,,,,,,,,,,,,,,,,,,,,,,,,,,,,,,,,,,,,,,,,,,,,,,,,,,
1676056923.008448,1676056923.009834,124.000000,0.000000,4269.615234,4258.461426,4291.666504,4306.410156,4290.128418,4292.051270,4272.051270,4296.025879,4265.769043,4279.615234,4459.487305,4476.153809,4387.179688,4428.717773,2815.000000,4.000000,98.000000,,,,0.000000,4.000000,4.000000,4.000000,4.000000,4.000000,4.000000,4.000000,4.000000,4.000000,4.000000,4.000000,4.000000,4.000000,4.000000,100.000000,,,,,,,,,,,,,,,,,,,,,,,,,,,,,,,,,,,,,,,,,,,,,,,,,,,,,,,,,,,,,,,,,,,,,,,,,,,,,,,,,,,,,,
1676056923.016256,1676056923.017743,125.000000,0.000000,4249.487305,4240.384766,4270.256348,4285.000000,4280.512695,4283.205078,4256.025879,4294.743652,4263.333496,4259.743652,4438.589844,4451.153809,4365.256348,4406.282227,3238.000000,4.000000,98.000000,,,,0.000000,4.000000,4.000000,4.000000,4.000000,4.000000,4.000000,4.000000,4.000000,4.000000,4.000000,4.000000,4.000000,4.000000,4.000000,100.000000,,,,,,,,,,,,,,,,,,,,,,,,,,,,,,,,,,,,,,,,,,,,,,,,,,,,,,,,,,,,,,,,,,,,,,,,,,,,,,,,,,,,,,
1676056923.024065,1676056923.025551,126.000000,0.000000,4261.922852,4259.615234,4289.615234,4297.948730,4293.205078,4294.871582,4278.461426,4321.153809,4281.666504,4278.461426,4456.282227,4469.743652,4381.922852,4423.846191,2406.000000,4.000000,98.000000,,,,0.000000,4.000000,4.000000,4.000000,4.000000,4.000000,4.000000,4.000000,4.000000,4.000000,4.000000,4.000000,4.000000,4.000000,4.000000,100.000000,,,,,,,,,,,,,,,,,2.939134,1.947748,0.417898,0.401228,0.193839,0.947302,1.579568,0.644664,0.480705,0.323048,2.825722,1.793103,0.676088,0.676108,0.225429,1.317630,1.371718,0.597623,0.242138,0.202026,1.089841,2.058962,0.318057,0.242241,0.189517,0.330524,3.862139,0.500730,0.274523,0.108260,0.875102,15.665215,0.651601,1.000026,0.165809,1.650539,12.469525,0.292060,0.757383,0.280354,1.003472,16.803375,0.538626,0.658109,0.205027,2.361686,7.632322,0.700016,0.530626,0.181921,2.295261,3.792366,0.629316,0.609746,0.266666,5.500220,6.902698,2.048236,1.660356,0.450044,2.391549,2.966173,0.790746,0.424902,0.175228,2.683063,2.643230,0.644254,0.529728,0.255227
1676056923.031873,1676056923.033459,127.000000,0.000000,4272.948730,4268.205078,4302.563965,4305.769043,4292.307617,4302.948730,4305.128418,4339.487305,4296.538574,4288.974121,4470.769043,4487.948730,4401.153809,4435.512695,98.000000,4.000000,98.000000,,,,0.000000,4.000000,4.000000,4.000000,4.000000,4.000000,4.000000,4.000000,4.000000,4.000000,4.000000,4.000000,4.000000,4.000000,4.000000,100.000000,,,,,,,,,,,,,,,,,,,,,,,,,,,,,,,,,,,,,,,,,,,,,,,,,,,,,,,,,,,,,,,,,,,,,,,,,,,,,,,,,,,,,,
1676056923.039682,1676056923.041268,0.000000,0.000000,4269.230957,4257.307617,4291.538574,4296.794922,4277.436035,4290.000000,4294.871582,4325.641113,4279.358887,4273.846191,4461.153809,4478.461426,4395.128418,4427.051270,2481.000000,4.000000,98.000000,,,,0.000000,4.000000,4.000000,4.000000,4.000000,4.000000,4.000000,4.000000,4.000000,4.000000,4.000000,4.000000,4.000000,4.000000,4.000000,100.000000,,,,,,,,,,,,,,,,,,,,,,,,,,,,,,,,,,,,,,,,,,,,,,,,,,,,,,,,,,,,,,,,,,,,,,,,,,,,,,,,,,,,,,
1676056923.047490,1676056923.049176,1.000000,0.000000,4279.358887,4266.538574,4302.179688,4309.871582,4286.025879,4281.410156,4282.436035,4323.333496,4265.769043,4275.641113,4470.000000,4486.282227,4396.794922,4440.512695,2389.000000,4.000000,98.000000,,,,0.000000,4.000000,4.000000,4.000000,4.000000,4.000000,4.000000,4.000000,4.000000,4.000000,4.000000,4.000000,4.000000,4.000000,4.000000,100.000000,,,,,,,,,,,,,,,,,,,,,,,,,,,,,,,,,,,,,,,,,,,,,,,,,,,,,,,,,,,,,,,,,,,,,,,,,,,,,,,,,,,,,,
1676056923.055298,1676056923.056985,2.000000,0.000000,4294.102539,4280.384766,4319.743652,4322.948730,4297.563965,4278.974121,4281.794922,4329.102539,4264.615234,4276.025879,4478.717773,4497.563965,4403.846191,4457.179688,1898.000000,4.000000,98.000000,,,,0.000000,4.000000,4.000000,4.000000,4.000000,4.000000,4.000000,4.000000,4.000000,4.000000,4.000000,4.000000,4.000000,4.000000,4.000000,100.000000,,,,,,,,,,,,,,,,,,,,,,,,,,,,,,,,,,,,,,,,,,,,,,,,,,,,,,,,,,,,,,,,,,,,,,,,,,,,,,,,,,,,,,
1676056923.063107,1676056923.064693,3.000000,0.000000,4299.102539,4285.128418,4322.820313,4321.410156,4296.538574,4279.487305,4281.666504,4320.000000,4261.666504,4274.487305,4477.563965,4495.769043,4407.307617,4457.307617,2222.000000,4.000000,98.000000,,,,0.000000,4.000000,4.000000,4.000000,4.000000,4.000000,4.000000,4.000000,4.000000,4.000000,4.000000,4.000000,4.000000,4.000000,4.000000,100.000000,,,,,,,,,,,,,,,,,,,,,,,,,,,,,,,,,,,,,,,,,,,,,,,,,,,,,,,,,,,,,,,,,,,,,,,,,,,,,,,,,,,,,,
1676056923.070915,1676056923.072502,4.000000,0.000000,4297.692383,4286.794922,4319.743652,4318.589844,4294.615234,4283.333496,4277.820313,4307.307617,4253.333496,4280.512695,4475.256348,4495.256348,4405.897461,4449.743652,2322.000000,4.000000,98.000000,,,,0.000000,4.000000,4.000000,4.000000,4.000000,4.000000,4.000000,4.000000,4.000000,4.000000,4.000000,4.000000,4.000000,4.000000,4.000000,100.000000,,,,,,,,,,,,,,,,,,,,,,,,,,,,,,,,,,,,,,,,,,,,,,,,,,,,,,,,,,,,,,,,,,,,,,,,,,,,,,,,,,,,,,
1676056923.078724,1676056923.080210,5.000000,0.000000,4292.948730,4281.666504,4311.282227,4310.512695,4291.922852,4287.948730,4272.692383,4293.077148,4241.025879,4267.948730,4462.563965,4488.205078,4396.025879,4440.897461,2132.000000,4.000000,98.000000,,,,0.000000,4.000000,4.000000,4.000000,4.000000,4.000000,4.000000,4.000000,4.000000,4.000000,4.000000,4.000000,4.000000,4.000000,4.000000,100.000000,,,,,,,,,,,,,,,,,,,,,,,,,,,,,,,,,,,,,,,,,,,,,,,,,,,,,,,,,,,,,,,,,,,,,,,,,,,,,,,,,,,,,,
1676056923.086532,1676056923.088019,6.000000,0.000000,4296.282227,4281.538574,4310.384766,4312.692383,4297.692383,4301.025879,4278.846191,4291.153809,4246.410156,4267.179688,4462.692383,4486.666504,4401.153809,4447.179688,2294.000000,4.000000,98.000000,,,,0.000000,4.000000,4.000000,4.000000,4.000000,4.000000,4.000000,4.000000,4.000000,4.000000,4.000000,4.000000,4.000000,4.000000,4.000000,100.000000,,,,,,,,,,,,,,,,,,,,,,,,,,,,,,,,,,,,,,,,,,,,,,,,,,,,,,,,,,,,,,,,,,,,,,,,,,,,,,,,,,,,,,
1676056923.094340,1676056923.095727,7.000000,0.000000,4294.230957,4279.487305,4312.051270,4316.025879,4298.461426,4303.589844,4281.538574,4308.205078,4271.282227,4288.846191,4475.000000,4493.846191,4406.025879,4449.615234,1992.000000,4.000000,98.000000,,,,0.000000,4.000000,4.000000,4.000000,4.000000,4.000000,4.000000,4.000000,4.000000,4.000000,4.000000,4.000000,4.000000,4.000000,4.000000,100.000000,,,,,,,,,,,,,,,,,,,,,,,,,,,,,,,,,,,,,,,,,,,,,,,,,,,,,,,,,,,,,,,,,,,,,,,,,,,,,,,,,,,,,,
1676056923.102149,1676056923.103536,8.000000,0.000000,4279.358887,4265.641113,4302.948730,4301.794922,4283.974121,4293.333496,4277.948730,4324.230957,4290.000000,4290.128418,4474.102539,4490.000000,4391.794922,4434.487305,2062.000000,4.000000,98.000000,,,,0.000000,4.000000,4.000000,4.000000,4.000000,4.000000,4.000000,4.000000,4.000000,4.000000,4.000000,4.000000,4.000000,4.000000,4.000000,100.000000,,,,,,,,,,,,,,,,,,,,,,,,,,,,,,,,,,,,,,,,,,,,,,,,,,,,,,,,,,,,,,,,,,,,,,,,,,,,,,,,,,,,,,
1676056923.109957,1676056923.111244,9.000000,0.000000,4274.358887,4260.769043,4299.871582,4296.666504,4281.282227,4292.820313,4291.794922,4335.128418,4295.769043,4283.333496,4470.641113,4486.282227,4388.077148,4431.666504,2391.000000,4.000000,98.000000,,,,0.000000,4.000000,4.000000,4.000000,4.000000,4.000000,4.000000,4.000000,4.000000,4.000000,4.000000,4.000000,4.000000,4.000000,4.000000,100.000000,,,,,,,,,,,,,,,,,,,,,,,,,,,,,,,,,,,,,,,,,,,,,,,,,,,,,,,,,,,,,,,,,,,,,,,,,,,,,,,,,,,,,,
1676056923.117765,1676056923.119053,10.000000,0.000000,4285.000000,4265.256348,4310.128418,4310.384766,4288.205078,4297.563965,4306.153809,4346.794922,4302.179688,4294.743652,4477.820313,4501.025879,4399.615234,4443.846191,2363.000000,4.000000,98.000000,,,,0.000000,4.000000,4.000000,4.000000,4.000000,4.000000,4.000000,4.000000,4.000000,4.000000,4.000000,4.000000,4.000000,4.000000,4.000000,100.000000,,,,,,,,,,,,,,,,,,,,,,,,,,,,,,,,,,,,,,,,,,,,,,,,,,,,,,,,,,,,,,,,,,,,,,,,,,,,,,,,,,,,,,
1676056923.125574,1676056923.126761,11.000000,0.000000,4293.846191,4265.512695,4312.307617,4313.205078,4283.205078,4293.846191,4298.717773,4343.846191,4296.538574,4293.846191,4479.102539,4508.461426,4399.871582,4447.692383,2449.000000,4.000000,98.000000,,,,0.000000,4.000000,4.000000,4.000000,4.000000,4.000000,4.000000,4.000000,4.000000,4.000000,4.000000,4.000000,4.000000,4.000000,4.000000,100.000000,,,,,,,,,,,,,,,,,,,,,,,,,,,,,,,,,,,,,,,,,,,,,,,,,,,,,,,,,,,,,,,,,,,,,,,,,,,,,,,,,,,,,,
1676056923.133382,1676056923.134570,12.000000,0.000000,4296.666504,4273.589844,4311.282227,4308.717773,4285.000000,4288.461426,4290.512695,4332.051270,4276.025879,4277.820313,4476.410156,4498.205078,4396.922852,4446.538574,2793.000000,4.000000,98.000000,,,,0.000000,4.000000,4.000000,4.000000,4.000000,4.000000,4.000000,4.000000,4.000000,4.000000,4.000000,4.000000,4.000000,4.000000,4.000000,100.000000,,,,,,,,,,,,,,,,,,,,,,,,,,,,,,,,,,,,,,,,,,,,,,,,,,,,,,,,,,,,,,,,,,,,,,,,,,,,,,,,,,,,,,
1676056923.141190,1676056923.142278,13.000000,0.000000,4295.769043,4281.666504,4315.128418,4313.974121,4298.333496,4286.410156,4287.692383,4325.256348,4263.974121,4272.948730,4474.358887,4488.205078,4398.333496,4443.717773,3206.000000,4.000000,98.000000,,,,0.000000,4.000000,4.000000,4.000000,4.000000,4.000000,4.000000,4.000000,4.000000,4.000000,4.000000,4.000000,4.000000,4.000000,4.000000,100.000000,,,,,,,,,,,,,,,,,,,,,,,,,,,,,,,,,,,,,,,,,,,,,,,,,,,,,,,,,,,,,,,,,,,,,,,,,,,,,,,,,,,,,,
1676056923.148999,1676056923.150087,14.000000,0.000000,4291.666504,4272.051270,4304.871582,4312.307617,4295.769043,4280.000000,4270.384766,4305.512695,4254.743652,4267.179688,4458.846191,4476.794922,4384.102539,4430.000000,2363.000000,4.000000,98.000000,,,,0.000000,4.000000,4.000000,4.000000,4.000000,4.000000,4.000000,4.000000,4.000000,4.000000,4.000000,4.000000,4.000000,4.000000,4.000000,100.000000,1.000000,91.666664,4.000000,4.000000,4.000000,4.000000,4.000000,4.000000,4.000000,4.000000,4.000000,4.000000,4.000000,3.000000,4.000000,4.000000,3.230398,1.721394,0.551820,0.346471,0.205553,1.343981,1.293293,0.788239,0.451448,0.305061,2.977544,1.346714,0.741640,0.666646,0.215659,1.519869,1.207075,0.747903,0.249952,0.213038,1.242956,1.926353,0.394286,0.276284,0.195420,0.280341,4.059903,0.598568,0.277125,0.123398,0.721317,15.839210,0.564176,1.003097,0.161705,1.546301,12.292376,0.348988,0.748657,0.250982,0.858176,16.410580,0.602363,0.632286,0.180276,1.950876,7.435275,0.685383,0.491437,0.186824,1.908029,3.356147,0.729249,0.524945,0.269610,5.308166,6.680374,2.207499,1.611405,0.467955,2.118331,3.059248,0.841266,0.384873,0.178830,2.585956,2.451497,0.764842,0.521807,0.241056
1676056923.156807,1676056923.157795,15.000000,0.000000,4290.897461,4267.563965,4297.820313,4306.153809,4287.179688,4278.461426,4256.153809,4286.153809,4243.077148,4259.102539,4450.641113,4472.563965,4374.358887,4427.563965,2449.000000,4.000000,98.000000,,,,0.000000,4.000000,4.000000,4.000000,4.000000,4.000000,4.000000,4.000000,4.000000,4.000000,4.000000,4.000000,4.000000,4.000000,4.000000,100.000000,,,,,,,,,,,,,,,,,,,,,,,,,,,,,,,,,,,,,,,,,,,,,,,,,,,,,,,,,,,,,,,,,,,,,,,,,,,,,,,,,,,,,,
1676056923.164616,1676056923.165604,16.000000,0.000000,4298.846191,4279.615234,4319.102539,4314.358887,4293.717773,4283.333496,4265.256348,4292.563965,4243.717773,4264.230957,4466.538574,4488.205078,4393.461426,4443.717773,0.000000,4.000000,98.000000,,,,0.000000,4.000000,4.000000,4.000000,4.000000,4.000000,4.000000,4.000000,4.000000,4.000000,4.000000,4.000000,4.000000,4.000000,4.000000,100.000000,,,,,,,,,,,,,,,,,,,,,,,,,,,,,,,,,,,,,,,,,,,,,,,,,,,,,,,,,,,,,,,,,,,,,,,,,,,,,,,,,,,,,,
1676056923.172424,1676056923.173312,17.000000,0.000000,4306.410156,4283.589844,4334.230957,4322.436035,4299.102539,4281.666504,4274.487305,4297.563965,4245.256348,4267.948730,4479.487305,4499.102539,4402.563965,4447.179688,0.000000,4.000000,98.000000,,,,0.000000,4.000000,4.000000,4.000000,4.000000,4.000000,4.000000,4.000000,4.000000,4.000000,4.000000,4.000000,4.000000,4.000000,4.000000,100.000000,,,,,,,,,,,,,,,,,,,,,,,,,,,,,,,,,,,,,,,,,,,,,,,,,,,,,,,,,,,,,,,,,,,,,,,,,,,,,,,,,,,,,,
1676056923.180232,1676056923.181121,18.000000,0.000000,4303.333496,4281.922852,4329.102539,4318.589844,4294.230957,4279.871582,4275.512695,4291.153809,4244.358887,4263.717773,4475.256348,4497.307617,4385.128418,4441.538574,0.000000,4.000000,98.000000,,,,0.000000,4.000000,4.000000,4.000000,4.000000,4.000000,4.000000,4.000000,4.000000,4.000000,4.000000,4.000000,4.000000,4.000000,4.000000,100.000000,,,,,,,,,,,,,,,,,,,,,,,,,,,,,,,,,,,,,,,,,,,,,,,,,,,,,,,,,,,,,,,,,,,,,,,,,,,,,,,,,,,,,,
1676056923.188041,1676056923.188829,19.000000,0.000000,4297.051270,4282.051270,4327.692383,4313.333496,4289.230957,4288.205078,4283.077148,4302.563965,4266.410156,4272.436035,4473.589844,4504.743652,4383.205078,4444.615234,0.000000,4.000000,98.000000,,,,0.000000,4.000000,4.000000,4.000000,4.000000,4.000000,4.000000,4.000000,4.000000,4.000000,4.000000,4.000000,4.000000,4.000000,4.000000,100.000000,,,,,,,,,,,,,,,,,,,,,,,,,,,,,,,,,,,,,,,,,,,,,,,,,,,,,,,,,,,,,,,,,,,,,,,,,,,,,,,,,,,,,,
1676056923.195849,1676056923.196638,20.000000,0.000000,4290.897461,4273.333496,4324.615234,4313.077148,4291.282227,4299.102539,4296.153809,4329.487305,4295.512695,4291.025879,4480.384766,4507.436035,4397.820313,4441.538574,0.000000,4.000000,98.000000,,,,0.000000,4.000000,4.000000,4.000000,4.000000,4.000000,4.000000,4.000000,4.000000,4.000000,4.000000,4.000000,4.000000,4.000000,4.000000,100.000000,,,,,,,,,,,,,,,,,,,,,,,,,,,,,,,,,,,,,,,,,,,,,,,,,,,,,,,,,,,,,,,,,,,,,,,,,,,,,,,,,,,,,,
1676056923.203658,1676056923.204346,21.000000,0.000000,4281.666504,4262.179688,4310.897461,4307.563965,4289.230957,4296.538574,4302.051270,4342.307617,4302.436035,4291.794922,4480.512695,4493.461426,4390.384766,4430.256348,0.000000,4.000000,98.000000,,,,0.000000,4.000000,4.000000,4.000000,4.000000,4.000000,4.000000,4.000000,4.000000,4.000000,4.000000,4.000000,4.000000,4.000000,4.000000,100.000000,,,,,,,,,,,,,,,,,,,,,,,,,,,,,,,,,,,,,,,,,,,,,,,,,,,,,,,,,,,,,,,,,,,,,,,,,,,,,,,,,,,,,,
1676056923.211466,1676056923.212155,22.000000,0.000000,4278.333496,4261.153809,4307.436035,4301.025879,4278.974121,4283.974121,4301.538574,4338.846191,4294.230957,4280.000000,4474.743652,4485.769043,4375.512695,4426.666504,0.000000,4.000000,98.000000,,,,0.000000,4.000000,4.000000,4.000000,4.000000,4.000000,4.000000,4.000000,4.000000,4.000000,4.000000,4.000000,4.000000,4.000000,4.000000,100.000000,,,,,,,,,,,,,,,,,,,,,,,,,,,,,,,,,,,,,,,,,,,,,,,,,,,,,,,,,,,,,,,,,,,,,,,,,,,,,,,,,,,,,,
1676056923.219274,1676056923.219863,23.000000,0.000000,4282.436035,4265.256348,4314.230957,4302.051270,4273.461426,4282.692383,4302.436035,4336.282227,4288.461426,4280.897461,4473.846191,4492.307617,4379.230957,4428.974121,0.000000,4.000000,98.000000,,,,0.000000,4.000000,4.000000,4.000000,4.000000,4.000000,4.000000,4.000000,4.000000,4.000000,4.000000,4.000000,4.000000,4.000000,4.000000,100.000000,,,,,,,,,,,,,,,,,,,,,,,,,,,,,,,,,,,,,,,,,,,,,,,,,,,,,,,,,,,,,,,,,,,,,,,,,,,,,,,,,,,,,,
1676056923.227083,1676056923.227772,24.000000,0.000000,4283.461426,4264.230957,4312.563965,4302.820313,4277.820313,4287.948730,4296.282227,4328.205078,4279.102539,4280.897461,4471.922852,4491.153809,4383.077148,4427.820313,0.000000,4.000000,98.000000,,,,0.000000,4.000000,4.000000,4.000000,4.000000,4.000000,4.000000,4.000000,4.000000,4.000000,4.000000,4.000000,4.000000,4.000000,4.000000,100.000000,,,,,,,,,,,,,,,,,,,,,,,,,,,,,,,,,,,,,,,,,,,,,,,,,,,,,,,,,,,,,,,,,,,,,,,,,,,,,,,,,,,,,,
1676056923.234891,1676056923.235580,25.000000,0.000000,4286.922852,4262.179688,4307.179688,4303.974121,4287.563965,4284.615234,4279.871582,4306.666504,4259.743652,4270.256348,4470.128418,4480.384766,4380.256348,4427.948730,0.000000,4.000000,98.000000,,,,0.000000,4.000000,4.000000,4.000000,4.000000,4.000000,4.000000,4.000000,4.000000,4.000000,4.000000,4.000000,4.000000,4.000000,4.000000,100.000000,,,,,,,,,,,,,,,,,,,,,,,,,,,,,,,,,,,,,,,,,,,,,,,,,,,,,,,,,,,,,,,,,,,,,,,,,,,,,,,,,,,,,,
1676056923.242700,1676056923.243488,26.000000,0.000000,4297.307617,4270.897461,4309.487305,4310.256348,4295.128418,4279.487305,4265.769043,4292.179688,4244.230957,4262.692383,4473.846191,4479.358887,4380.000000,4433.846191,0.000000,4.000000,98.000000,,,,0.000000,4.000000,4.000000,4.000000,4.000000,4.000000,4.000000,4.000000,4.000000,4.000000,4.000000,4.000000,4.000000,4.000000,4.000000,100.000000,,,,,,,,,,,,,,,,,,,,,,,,,,,,,,,,,,,,,,,,,,,,,,,,,,,,,,,,,,,,,,,,,,,,,,,,,,,,,,,,,,,,,,
1676056923.250508,1676056923.251297,27.000000,0.000000,4303.974121,4281.410156,4315.000000,4313.717773,4297.436035,4278.717773,4260.897461,4283.974121,4231.282227,4253.589844,4467.692383,4478.461426,4380.256348,4435.641113,0.000000,4.000000,98.000000,,,,0.000000,4.000000,4.000000,4.000000,4.000000,4.000000,4.000000,4.000000,4.000000,4.000000,4.000000,4.000000,4.000000,4.000000,4.000000,100.000000,,,,,,,,,,,,,,,,,,,,,,,,,,,,,,,,,,,,,,,,,,,,,,,,,,,,,,,,,,,,,,,,,,,,,,,,,,,,,,,,,,,,,,
1676056923.258316,1676056923.259205,28.000000,0.000000,4308.589844,4288.589844,4321.410156,4315.256348,4302.948730,4283.205078,4260.128418,4272.820313,4223.717773,4251.922852,4458.461426,4474.743652,4381.410156,4431.794922,0.000000,4.000000,98.000000,,,,0.000000,4.000000,4.000000,4.000000,4.000000,4.000000,4.000000,4.000000,4.000000,4.000000,4.000000,4.000000,4.000000,4.000000,4.000000,100.000000,,,,,,,,,,,,,,,,,,,,,,,,,,,,,,,,,,,,,,,,,,,,,,,,,,,,,,,,,,,,,,,,,,,,,,,,,,,,,,,,,,,,,,
1676056923.266125,1676056923.267014,29.000000,0.000000,4313.974121,4293.461426,4329.102539,4325.384766,4307.307617,4290.512695,4262.307617,4278.333496,4242.179688,4271.153809,4468.333496,4483.974121,4382.820313,4435.000000,0.000000,4.000000,98.000000,,,,0.000000,4.000000,4.000000,4.000000,4.000000,4.000000,4.000000,4.000000,4.000000,4.000000,4.000000,4.000000,4.000000,4.000000,4.000000,100.000000,,,,,,,,,,,,,,,,,,,,,,,,,,,,,,,,,,,,,,,,,,,,,,,,,,,,,,,,,,,,,,,,,,,,,,,,,,,,,,,,,,,,,,
1676056923.273933,1676056923.274922,30.000000,0.000000,4313.461426,4289.230957,4330.897461,4329.358887,4301.025879,4289.871582,4270.512695,4298.077148,4266.538574,4284.743652,4481.410156,4496.538574,4383.846191,4443.205078,0.000000,4.000000,98.000000,,,,0.000000,4.000000,4.000000,4.000000,4.000000,4.000000,4.000000,4.000000,4.000000,4.000000,4.000000,4.000000,4.000000,4.000000,4.000000,100.000000,,,,,,,,,,,,,,,,,3.214507,1.901463,0.702946,0.308303,0.208712,1.732754,1.340466,0.939623,0.432548,0.281656,2.917848,1.344021,0.857307,0.662556,0.198914,1.628948,1.352354,0.949580,0.285167,0.219825,1.295114,1.903180,0.502928,0.309714,0.194092,0.237830,3.974971,0.693819,0.279129,0.140027,0.534263,15.640177,0.520698,0.947006,0.160568,1.458061,11.915459,0.446349,0.684100,0.217422,0.685186,15.694292,0.678510,0.580900,0.163591,1.448643,6.876954,0.626843,0.440309,0.194125,1.490056,2.850057,0.807453,0.454003,0.273551,4.681061,6.002349,2.156753,1.439211,0.451046,1.830320,3.193100,0.921578,0.372060,0.185056,2.414980,2.514215,0.900635,0.528667,0.224017
1676056923.281742,1676056923.282730,31.000000,0.000000,4304.871582,4278.846191,4321.794922,4317.692383,4293.205078,4279.871582,4279.487305,4307.692383,4267.948730,4278.589844,4476.153809,4493.205078,4383.077148,4439.230957,0.000000,4.000000,98.000000,,,,0.000000,4.000000,4.000000,4.000000,4.000000,4.000000,4.000000,4.000000,4.000000,4.000000,4.000000,4.000000,4.000000,4.000000,4.000000,100.000000,,,,,,,,,,,,,,,,,,,,,,,,,,,,,,,,,,,,,,,,,,,,,,,,,,,,,,,,,,,,,,,,,,,,,,,,,,,,,,,,,,,,,,
1676056923.289550,1676056923.290439,32.000000,0.000000,4291.922852,4273.333496,4312.820313,4303.974121,4286.025879,4281.025879,4288.461426,4318.333496,4270.512695,4277.179688,4469.102539,4487.436035,4379.358887,4426.410156,0.000000,4.000000,98.000000,,,,0.000000,4.000000,4.000000,4.000000,4.000000,4.000000,4.000000,4.000000,4.000000,4.000000,4.000000,4.000000,4.000000,4.000000,4.000000,100.000000,,,,,,,,,,,,,,,,,,,,,,,,,,,,,,,,,,,,,,,,,,,,,,,,,,,,,,,,,,,,,,,,,,,,,,,,,,,,,,,,,,,,,,
1676056923.297358,1676056923.298247,33.000000,0.000000,4286.794922,4268.589844,4312.179688,4297.436035,4278.974121,4290.000000,4298.717773,4331.282227,4286.410156,4282.563965,4474.102539,4494.230957,4380.384766,4425.384766,0.000000,4.000000,98.000000,,,,0.000000,4.000000,4.000000,4.000000,4.000000,4.000000,4.000000,4.000000,4.000000,4.000000,4.000000,4.000000,4.000000,4.000000,4.000000,100.000000,,,,,,,,,,,,,,,,,,,,,,,,,,,,,,,,,,,,,,,,,,,,,,,,,,,,,,,,,,,,,,,,,,,,,,,,,,,,,,,,,,,,,,
1676056923.305167,1676056923.305956,34.000000,0.000000,4290.384766,4260.256348,4311.025879,4294.358887,4286.794922,4287.307617,4296.794922,4324.743652,4282.948730,4281.025879,4473.205078,4493.461426,4383.846191,4429.358887,0.000000,4.000000,98.000000,,,,0.000000,4.000000,4.000000,4.000000,4.000000,4.000000,4.000000,4.000000,4.000000,4.000000,4.000000,4.000000,4.000000,4.000000,4.000000,100.000000,,,,,,,,,,,,,,,,,,,,,,,,,,,,,,,,,,,,,,,,,,,,,,,,,,,,,,,,,,,,,,,,,,,,,,,,,,,,,,,,,,,,,,
1676056923.312975,1676056923.313764,35.000000,0.000000,4289.615234,4260.641113,4303.461426,4293.461426,4291.666504,4278.461426,4283.333496,4310.897461,4266.538574,4280.897461,4460.641113,4477.820313,4381.025879,4424.615234,0.000000,4.000000,98.000000,,,,0.000000,4.000000,4.000000,4.000000,4.000000,4.000000,4.000000,4.000000,4.000000,4.000000,4.000000,4.000000,4.000000,4.000000,4.000000,100.000000,,,,,,,,,,,,,,,,,,,,,,,,,,,,,,,,,,,,,,,,,,,,,,,,,,,,,,,,,,,,,,,,,,,,,,,,,,,,,,,,,,,,,,
1676056923.320784,1676056923.321473,36.000000,0.000000,4287.179688,4268.077148,4301.282227,4296.666504,4280.512695,4276.410156,4272.051270,4310.128418,4262.307617,4280.128418,4457.436035,4468.846191,4378.461426,4420.384766,0.000000,4.000000,98.000000,,,,0.000000,4.000000,4.000000,4.000000,4.000000,4.000000,4.000000,4.000000,4.000000,4.000000,4.000000,4.000000,4.000000,4.000000,4.000000,100.000000,,,,,,,,,,,,,,,,,,,,,,,,,,,,,,,,,,,,,,,,,,,,,,,,,,,,,,,,,,,,,,,,,,,,,,,,,,,,,,,,,,,,,,
1676056923.328592,1676056923.329281,37.000000,0.000000,4295.384766,4279.358887,4314.358887,4305.769043,4281.282227,4280.897461,4269.743652,4311.794922,4267.179688,4277.307617,4466.666504,4480.384766,4386.794922,4427.948730,0.000000,4.000000,98.000000,,,,0.000000,4.000000,4.000000,4.000000,4.000000,4.000000,4.000000,4.000000,4.000000,4.000000,4.000000,4.000000,4.000000,4.000000,4.000000,100.000000,,,,,,,,,,,,,,,,,,,,,,,,,,,,,,,,,,,,,,,,,,,,,,,,,,,,,,,,,,,,,,,,,,,,,,,,,,,,,,,,,,,,,,
1676056923.336400,1676056923.336990,38.000000,0.000000,4308.205078,4294.743652,4331.282227,4319.743652,4295.897461,4282.436035,4269.102539,4303.846191,4263.333496,4282.179688,4479.615234,4499.871582,4399.102539,4445.769043,0.000000,4.000000,98.000000,,,,0.000000,4.000000,4.000000,4.000000,4.000000,4.000000,4.000000,4.000000,4.000000,4.000000,4.000000,4.000000,4.000000,4.000000,4.000000,100.000000,,,,,,,,,,,,,,,,,,,,,,,,,,,,,,,,,,,,,,,,,,,,,,,,,,,,,,,,,,,,,,,,,,,,,,,,,,,,,,,,,,,,,,
1676056923.344209,1676056923.344898,39.000000,0.000000,4314.230957,4300.128418,4341.666504,4330.769043,4297.820313,4278.333496,4266.666504,4293.846191,4251.025879,4282.948730,4491.794922,4511.153809,4404.615234,4461.922852,0.000000,4.000000,98.000000,,,,0.000000,4.000000,4.000000,4.000000,4.000000,4.000000,4.000000,4.000000,4.000000,4.000000,4.000000,4.000000,4.000000,4.000000,4.000000,100.000000,,,,,,,,,,,,,,,,,,,,,,,,,,,,,,,,,,,,,,,,,,,,,,,,,,,,,,,,,,,,,,,,,,,,,,,,,,,,,,,,,,,,,,
1676056923.352017,1676056923.352707,40.000000,0.000000,4313.333496,4295.897461,4344.230957,4333.333496,4296.282227,4280.128418,4265.641113,4286.922852,4241.794922,4269.615234,4490.128418,4507.179688,4402.436035,4460.128418,0.000000,4.000000,98.000000,,,,0.000000,4.000000,4.000000,4.000000,4.000000,4.000000,4.000000,4.000000,4.000000,4.000000,4.000000,4.000000,4.000000,4.000000,4.000000,100.000000,,,,,,,,,,,,,,,,,,,,,,,,,,,,,,,,,,,,,,,,,,,,,,,,,,,,,,,,,,,,,,,,,,,,,,,,,,,,,,,,,,,,,,
1676056923.359825,1676056923.360615,41.000000,0.000000,4306.794922,4297.948730,4339.487305,4330.641113,4303.717773,4289.358887,4273.205078,4284.615234,4239.871582,4264.102539,4475.128418,4495.897461,4396.025879,4447.948730,0.000000,4.000000,98.000000,,,,0.000000,4.000000,4.000000,4.000000,4.000000,4.000000,4.000000,4.000000,4.000000,4.000000,4.000000,4.000000,4.000000,4.000000,4.000000,100.000000,,,,,,,,,,,,,,,,,,,,,,,,,,,,,,,,,,,,,,,,,,,,,,,,,,,,,,,,,,,,,,,,,,,,,,,,,,,,,,,,,,,,,,
1676056923.367634,1676056923.368424,42.000000,0.000000,4299.230957,4300.769043,4331.410156,4322.051270,4306.410156,4297.563965,4282.307617,4296.794922,4256.282227,4276.922852,4473.846191,4494.615234,4394.743652,4446.282227,0.000000,4.000000,98.000000,,,,0.000000,4.000000,4.000000,4.000000,4.000000,4.000000,4.000000,4.000000,4.000000,4.000000,4.000000,4.000000,4.000000,4.000000,4.000000,100.000000,,,,,,,,,,,,,,,,,,,,,,,,,,,,,,,,,,,,,,,,,,,,,,,,,,,,,,,,,,,,,,,,,,,,,,,,,,,,,,,,,,,,,,
1676056923.375442,1676056923.376332,43.000000,0.000000,4294.102539,4289.871582,4324.102539,4316.025879,4300.512695,4298.717773,4281.153809,4311.025879,4279.743652,4285.128418,4481.153809,4496.666504,4397.820313,4443.077148,0.000000,4.000000,98.000000,,,,0.000000,4.000000,4.000000,4.000000,4.000000,4.000000,4.000000,4.000000,4.000000,4.000000,4.000000,4.000000,4.000000,4.000000,4.000000,100.000000,,,,,,,,,,,,,,,,,,,,,,,,,,,,,,,,,,,,,,,,,,,,,,,,,,,,,,,,,,,,,,,,,,,,,,,,,,,,,,,,,,,,,,
1676056923.383251,1676056923.384140,44.000000,0.000000,4291.922852,4278.333496,4317.948730,4318.077148,4296.282227,4296.538574,4283.589844,4314.615234,4286.153809,4282.051270,4475.512695,4491.538574,4392.051270,4431.538574,0.000000,4.000000,98.000000,,,,0.000000,4.000000,4.000000,4.000000,4.000000,4.000000,4.000000,4.000000,4.000000,4.000000,4.000000,4.000000,4.000000,4.000000,4.000000,100.000000,,,,,,,,,,,,,,,,,,,,,,,,,,,,,,,,,,,,,,,,,,,,,,,,,,,,,,,,,,,,,,,,,,,,,,,,,,,,,,,,,,,,,,
1676056923.391059,1676056923.391949,45.000000,0.000000,4291.922852,4281.922852,4314.615234,4318.846191,4296.282227,4294.743652,4295.256348,4322.563965,4287.051270,4282.948730,4473.333496,4491.282227,4385.641113,4430.384766,0.000000,4.000000,98.000000,,,,0.000000,4.000000,4.000000,4.000000,4.000000,4.000000,4.000000,4.000000,4.000000,4.000000,4.000000,4.000000,4.000000,4.000000,4.000000,100.000000,,,,,,,,,,,,,,,,,,,,,,,,,,,,,,,,,,,,,,,,,,,,,,,,,,,,,,,,,,,,,,,,,,,,,,,,,,,,,,,,,,,,,,
1676056923.398867,1676056923.399657,46.000000,0.000000,4286.282227,4281.922852,4310.000000,4309.487305,4296.025879,4293.077148,4294.358887,4328.717773,4288.717773,4286.794922,4479.615234,4490.641113,4393.846191,4433.461426,0.000000,4.000000,98.000000,,,,0.000000,4.000000,4.000000,4.000000,4.000000,4.000000,4.000000,4.000000,4.000000,4.000000,4.000000,4.000000,4.000000,4.000000,4.000000,100.000000,,,,,,,,,,,,,,,,,2.912199,2.393552,0.840828,0.307219,0.205824,2.039448,1.698791,1.054244,0.436502,0.263299,2.683691,1.676981,0.992452,0.683648,0.186259,1.657256,1.746371,1.133781,0.353766,0.223876,1.286687,2.032811,0.612649,0.334841,0.188983,0.210302,3.605295,0.768875,0.281988,0.156484,0.365961,14.816259,0.513914,0.848903,0.169901,1.327358,11.769478,0.607617,0.584486,0.192765,0.524544,15.273448,0.783171,0.518156,0.157150,0.975367,6.117986,0.553650,0.393676,0.210861,1.095178,2.321907,0.874979,0.425561,0.282728,3.709881,4.925918,1.941991,1.202470,0.411558,1.543462,3.224400,1.042034,0.406641,0.198176,2.197731,2.712989,1.038690,0.564898,0.213268
1676056923.406676,1676056923.407566,47.000000,0.000000,4281.153809,4277.436035,4300.512695,4300.897461,4295.769043,4291.538574,4282.179688,4316.794922,4277.563965,4283.846191,4477.563965,4480.256348,4400.256348,4428.205078,0.000000,4.000000,98.000000,,,,0.000000,4.000000,4.000000,4.000000,4.000000,4.000000,4.000000,4.000000,4.000000,4.000000,4.000000,4.000000,4.000000,4.000000,4.000000,100.000000,,,,,,,,,,,,,,,,,,,,,,,,,,,,,,,,,,,,,,,,,,,,,,,,,,,,,,,,,,,,,,,,,,,,,,,,,,,,,,,,,,,,,,
1676056923.414484,1676056923.415374,48.000000,0.000000,4282.436035,4284.615234,4296.282227,4301.282227,4294.615234,4285.512695,4270.384766,4299.615234,4258.205078,4272.436035,4471.794922,4471.025879,4388.205078,4425.512695,0.000000,4.000000,98.000000,,,,0.000000,4.000000,4.000000,4.000000,4.000000,4.000000,4.000000,4.000000,4.000000,4.000000,4.000000,4.000000,4.000000,4.000000,4.000000,100.000000,,,,,,,,,,,,,,,,,,,,,,,,,,,,,,,,,,,,,,,,,,,,,,,,,,,,,,,,,,,,,,,,,,,,,,,,,,,,,,,,,,,,,,
1676056923.422292,1676056923.423282,49.000000,0.000000,4287.563965,4295.000000,4303.077148,4305.128418,4292.948730,4279.615234,4260.256348,4290.384766,4245.512695,4257.692383,4468.461426,4470.256348,4378.974121,4431.538574,0.000000,4.000000,98.000000,,,,0.000000,4.000000,4.000000,4.000000,4.000000,4.000000,4.000000,4.000000,4.000000,4.000000,4.000000,4.000000,4.000000,4.000000,4.000000,100.000000,,,,,,,,,,,,,,,,,,,,,,,,,,,,,,,,,,,,,,,,,,,,,,,,,,,,,,,,,,,,,,,,,,,,,,,,,,,,,,,,,,,,,,
1676056923.430101,1676056923.431091,50.000000,0.000000,4299.358887,4303.589844,4320.897461,4315.769043,4298.461426,4285.384766,4259.230957,4291.153809,4241.538574,4262.179688,4476.025879,4482.692383,4392.051270,4443.974121,0.000000,4.000000,98.000000,,,,0.000000,4.000000,4.000000,4.000000,4.000000,4.000000,4.000000,4.000000,4.000000,4.000000,4.000000,4.000000,4.000000,4.000000,4.000000,100.000000,,,,,,,,,,,,,,,,,,,,,,,,,,,,,,,,,,,,,,,,,,,,,,,,,,,,,,,,,,,,,,,,,,,,,,,,,,,,,,,,,,,,,,
1676056923.437909,1676056923.438999,51.000000,0.000000,4313.974121,4310.512695,4344.230957,4331.794922,4304.615234,4298.077148,4268.333496,4296.922852,4251.666504,4285.128418,4492.563965,4503.974121,4409.230957,4459.487305,0.000000,4.000000,98.000000,,,,0.000000,4.000000,4.000000,4.000000,4.000000,4.000000,4.000000,4.000000,4.000000,4.000000,4.000000,4.000000,4.000000,4.000000,4.000000,100.000000,,,,,,,,,,,,,,,,,,,,,,,,,,,,,,,,,,,,,,,,,,,,,,,,,,,,,,,,,,,,,,,,,,,,,,,,,,,,,,,,,,,,,,
1676056923.445718,1676056923.446808,52.000000,0.000000,4313.077148,4309.102539,4353.205078,4339.102539,4300.128418,4296.282227,4271.025879,4292.692383,4263.461426,4299.102539,4500.897461,4515.256348,4416.410156,4464.358887,0.000000,4.000000,98.000000,,,,0.000000,4.000000,4.000000,4.000000,4.000000,4.000000,4.000000,4.000000,4.000000,4.000000,4.000000,4.000000,4.000000,4.000000,4.000000,100.000000,,,,,,,,,,,,,,,,,,,,,,,,,,,,,,,,,,,,,,,,,,,,,,,,,,,,,,,,,,,,,,,,,,,,,,,,,,,,,,,,,,,,,,
1676056923.453526,1676056923.454716,53.000000,0.000000,4300.641113,4299.615234,4339.615234,4326.538574,4293.974121,4282.436035,4263.333496,4280.384766,4261.922852,4297.948730,4495.128418,4510.128418,4411.410156,4454.230957,0.000000,4.000000,98.000000,,,,0.000000,4.000000,4.000000,4.000000,4.000000,4.000000,4.000000,4.000000,4.000000,4.000000,4.000000,4.000000,4.000000,4.000000,4.000000,100.000000,,,,,,,,,,,,,,,,,,,,,,,,,,,,,,,,,,,,,,,,,,,,,,,,,,,,,,,,,,,,,,,,,,,,,,,,,,,,,,,,,,,,,,
1676056923.461334,1676056923.462524,54.000000,0.000000,4290.769043,4287.692383,4325.256348,4311.538574,4293.589844,4279.102539,4260.256348,4278.333496,4257.948730,4294.358887,4488.333496,4497.948730,4397.820313,4442.051270,0.000000,4.000000,98.000000,,,,0.000000,4.000000,4.000000,4.000000,4.000000,4.000000,4.000000,4.000000,4.000000,4.000000,4.000000,4.000000,4.000000,4.000000,4.000000,100.000000,,,,,,,,,,,,,,,,,,,,,,,,,,,,,,,,,,,,,,,,,,,,,,,,,,,,,,,,,,,,,,,,,,,,,,,,,,,,,,,,,,,,,,
1676056923.469143,1676056923.470233,55.000000,0.000000,4283.589844,4284.743652,4327.436035,4318.974121,4295.000000,4283.205078,4270.256348,4291.794922,4267.692383,4292.820313,4489.743652,4492.563965,4387.563965,4435.384766,0.000000,4.000000,98.000000,,,,0.000000,4.000000,4.000000,4.000000,4.000000,4.000000,4.000000,4.000000,4.000000,4.000000,4.000000,4.000000,4.000000,4.000000,4.000000,100.000000,,,,,,,,,,,,,,,,,,,,,,,,,,,,,,,,,,,,,,,,,,,,,,,,,,,,,,,,,,,,,,,,,,,,,,,,,,,,,,,,,,,,,,
1676056923.476951,1676056923.478041,56.000000,0.000000,4281.666504,4286.410156,4328.846191,4321.282227,4295.128418,4281.538574,4282.692383,4310.000000,4283.461426,4290.000000,4489.871582,4494.871582,4385.256348,4428.717773,0.000000,4.000000,98.000000,,,,0.000000,4.000000,4.000000,4.000000,4.000000,4.000000,4.000000,4.000000,4.000000,4.000000,4.000000,4.000000,4.000000,4.000000,4.000000,100.000000,,,,,,,,,,,,,,,,,,,,,,,,,,,,,,,,,,,,,,,,,,,,,,,,,,,,,,,,,,,,,,,,,,,,,,,,,,,,,,,,,,,,,,
1676056923.484759,1676056923.485750,57.000000,0.000000,4279.102539,4285.128418,4313.846191,4303.205078,4290.384766,4277.563965,4278.077148,4309.102539,4281.538574,4287.436035,4480.641113,4490.000000,4383.205078,4419.487305,0.000000,4.000000,98.000000,,,,0.000000,4.000000,4.000000,4.000000,4.000000,4.000000,4.000000,4.000000,4.000000,4.000000,4.000000,4.000000,4.000000,4.000000,4.000000,100.000000,,,,,,,,,,,,,,,,,,,,,,,,,,,,,,,,,,,,,,,,,,,,,,,,,,,,,,,,,,,,,,,,,,,,,,,,,,,,,,,,,,,,,,
1676056923.492568,1676056923.493558,58.000000,0.000000,4270.128418,4274.615234,4297.563965,4294.615234,4282.692383,4277.307617,4266.282227,4294.743652,4265.384766,4280.512695,4463.846191,4472.179688,4373.589844,4411.666504,0.000000,4.000000,98.000000,,,,0.000000,4.000000,4.000000,4.000000,4.000000,4.000000,4.000000,4.000000,4.000000,4.000000,4.000000,4.000000,4.000000,4.000000,4.000000,100.000000,,,,,,,,,,,,,,,,,,,,,,,,,,,,,,,,,,,,,,,,,,,,,,,,,,,,,,,,,,,,,,,,,,,,,,,,,,,,,,,,,,,,,,
1676056923.500376,1676056923.501267,59.000000,0.000000,4259.615234,4265.256348,4289.743652,4293.589844,4280.128418,4277.692383,4263.846191,4296.153809,4260.641113,4269.615234,4447.820313,4455.769043,4360.641113,4405.897461,0.000000,4.000000,98.000000,,,,0.000000,4.000000,4.000000,4.000000,4.000000,4.000000,4.000000,4.000000,4.000000,4.000000,4.000000,4.000000,4.000000,4.000000,4.000000,100.000000,,,,,,,,,,,,,,,,,,,,,,,,,,,,,,,,,,,,,,,,,,,,,,,,,,,,,,,,,,,,,,,,,,,,,,,,,,,,,,,,,,,,,,
1676056923.508185,1676056923.509075,60.000000,0.000000,4251.666504,4260.512695,4282.692383,4281.025879,4282.179688,4276.666504,4264.743652,4304.102539,4265.512695,4262.436035,4444.615234,4447.563965,4354.358887,4398.717773,0.000000,4.000000,98.000000,,,,0.000000,4.000000,4.000000,4.000000,4.000000,4.000000,4.000000,4.000000,4.000000,4.000000,4.000000,4.000000,4.000000,4.000000,4.000000,100.000000,,,,,,,,,,,,,,,,,,,,,,,,,,,,,,,,,,,,,,,,,,,,,,,,,,,,,,,,,,,,,,,,,,,,,,,,,,,,,,,,,,,,,,
1676056923.515993,1676056923.516784,61.000000,0.000000,4243.333496,4249.743652,4274.743652,4272.436035,4279.743652,4277.820313,4261.025879,4291.282227,4252.307617,4254.102539,4440.769043,4441.410156,4346.538574,4389.102539,0.000000,4.000000,98.000000,,,,0.000000,4.000000,4.000000,4.000000,4.000000,4.000000,4.000000,4.000000,4.000000,4.000000,4.000000,4.000000,4.000000,4.000000,4.000000,100.000000,,,,,,,,,,,,,,,,,,,,,,,,,,,,,,,,,,,,,,,,,,,,,,,,,,,,,,,,,,,,,,,,,,,,,,,,,,,,,,,,,,,,,,
1676056923.523801,1676056923.524592,62.000000,0.000000,4242.051270,4246.538574,4275.256348,4273.205078,4273.846191,4278.974121,4258.461426,4270.128418,4228.717773,4241.153809,4425.641113,4435.641113,4331.922852,4381.922852,0.000000,4.000000,98.000000,,,,0.000000,4.000000,4.000000,4.000000,4.000000,4.000000,4.000000,4.000000,4.000000,4.000000,4.000000,4.000000,4.000000,4.000000,4.000000,100.000000,,,,,,,,,,,,,,,,,2.421787,3.029191,0.935225,0.346437,0.202108,2.196681,2.251835,1.094739,0.464214,0.258145,2.358692,2.163949,1.119234,0.731903,0.187538,1.603630,2.259325,1.233142,0.445680,0.227982,1.259135,2.326549,0.684466,0.346611,0.184917,0.198729,3.051439,0.791261,0.288105,0.171906,0.251824,13.442025,0.559415,0.729253,0.194241,1.228523,12.273185,0.863458,0.478244,0.187411,0.427922,15.669301,0.926605,0.464982,0.163414,0.608720,5.346550,0.491802,0.362840,0.243228,0.773756,1.809865,0.957214,0.444345,0.300204,2.624337,3.666566,1.702008,0.971144,0.370712,1.273433,3.057094,1.189172,0.482115,0.222913,1.923432,2.874309,1.166353,0.625869,0.216028
1676056923.531610,1676056923.532301,63.000000,0.000000,4257.179688,4264.743652,4294.358887,4281.794922,4276.410156,4281.153809,4259.230957,4268.974121,4232.179688,4242.948730,4432.051270,4448.974121,4337.692383,4393.717773,0.000000,4.000000,98.000000,,,,0.000000,4.000000,4.000000,4.000000,4.000000,4.000000,4.000000,4.000000,4.000000,4.000000,4.000000,4.000000,4.000000,4.000000,4.000000,100.000000,,,,,,,,,,,,,,,,,,,,,,,,,,,,,,,,,,,,,,,,,,,,,,,,,,,,,,,,,,,,,,,,,,,,,,,,,,,,,,,,,,,,,,
1676056923.539418,1676056923.540109,64.000000,0.000000,4279.487305,4285.384766,4324.358887,4305.769043,4287.051270,4282.436035,4261.410156,4281.410156,4256.538574,4272.436035,4470.641113,4486.025879,4372.179688,4427.179688,2474.000000,4.000000,98.000000,,,,0.000000,4.000000,4.000000,4.000000,4.000000,4.000000,4.000000,4.000000,4.000000,4.000000,4.000000,4.000000,4.000000,4.000000,4.000000,100.000000,,,,,,,,,,,,,,,,,,,,,,,,,,,,,,,,,,,,,,,,,,,,,,,,,,,,,,,,,,,,,,,,,,,,,,,,,,,,,,,,,,,,,,
1676056923.547227,1676056923.547818,65.000000,0.000000,4296.666504,4291.025879,4345.641113,4322.820313,4293.077148,4278.589844,4266.922852,4285.641113,4265.769043,4297.307617,4498.205078,4511.410156,4395.769043,4449.487305,2394.000000,4.000000,98.000000,,,,0.000000,4.000000,4.000000,4.000000,4.000000,4.000000,4.000000,4.000000,4.000000,4.000000,4.000000,4.000000,4.000000,4.000000,4.000000,100.000000,,,,,,,,,,,,,,,,,,,,,,,,,,,,,,,,,,,,,,,,,,,,,,,,,,,,,,,,,,,,,,,,,,,,,,,,,,,,,,,,,,,,,,
1676056923.555035,1676056923.555626,66.000000,0.000000,4301.410156,4300.256348,4350.897461,4323.333496,4289.102539,4275.384766,4278.333496,4291.538574,4264.358887,4296.538574,4498.717773,4516.025879,4392.307617,4448.077148,1898.000000,4.000000,98.000000,,,,0.000000,4.000000,4.000000,4.000000,4.000000,4.000000,4.000000,4.000000,4.000000,4.000000,4.000000,4.000000,4.000000,4.000000,4.000000,100.000000,,,,,,,,,,,,,,,,,,,,,,,,,,,,,,,,,,,,,,,,,,,,,,,,,,,,,,,,,,,,,,,,,,,,,,,,,,,,,,,,,,,,,,
1676056923.562843,1676056923.563335,67.000000,0.000000,4294.358887,4308.717773,4346.666504,4326.025879,4286.666504,4277.179688,4287.820313,4307.820313,4276.794922,4293.974121,4494.487305,4518.846191,4389.487305,4444.615234,2234.000000,4.000000,98.000000,,,,0.000000,4.000000,4.000000,4.000000,4.000000,4.000000,4.000000,4.000000,4.000000,4.000000,4.000000,4.000000,4.000000,4.000000,4.000000,100.000000,,,,,,,,,,,,,,,,,,,,,,,,,,,,,,,,,,,,,,,,,,,,,,,,,,,,,,,,,,,,,,,,,,,,,,,,,,,,,,,,,,,,,,
1676056923.570652,1676056923.571143,68.000000,0.000000,4285.384766,4298.205078,4338.333496,4324.230957,4290.769043,4277.820313,4293.205078,4317.436035,4291.410156,4298.974121,4491.922852,4516.666504,4385.384766,4442.179688,2322.000000,4.000000,98.000000,,,,0.000000,4.000000,4.000000,4.000000,4.000000,4.000000,4.000000,4.000000,4.000000,4.000000,4.000000,4.000000,4.000000,4.000000,4.000000,100.000000,,,,,,,,,,,,,,,,,,,,,,,,,,,,,,,,,,,,,,,,,,,,,,,,,,,,,,,,,,,,,,,,,,,,,,,,,,,,,,,,,,,,,,
1676056923.578460,1676056923.578852,69.000000,0.000000,4283.077148,4292.563965,4332.307617,4317.948730,4294.743652,4277.307617,4295.000000,4323.974121,4294.615234,4301.538574,4490.384766,4510.000000,4375.641113,4433.846191,2132.000000,4.000000,98.000000,,,,0.000000,4.000000,4.000000,4.000000,4.000000,4.000000,4.000000,4.000000,4.000000,4.000000,4.000000,4.000000,4.000000,4.000000,4.000000,100.000000,,,,,,,,,,,,,,,,,,,,,,,,,,,,,,,,,,,,,,,,,,,,,,,,,,,,,,,,,,,,,,,,,,,,,,,,,,,,,,,,,,,,,,
1676056923.586269,1676056923.586660,70.000000,0.000000,4281.666504,4296.025879,4330.128418,4321.666504,4299.102539,4285.512695,4288.974121,4326.538574,4290.512695,4295.897461,4485.641113,4506.922852,4372.179688,4425.128418,2294.000000,4.000000,98.000000,,,,0.000000,4.000000,4.000000,4.000000,4.000000,4.000000,4.000000,4.000000,4.000000,4.000000,4.000000,4.000000,4.000000,4.000000,4.000000,100.000000,,,,,,,,,,,,,,,,,,,,,,,,,,,,,,,,,,,,,,,,,,,,,,,,,,,,,,,,,,,,,,,,,,,,,,,,,,,,,,,,,,,,,,
1676056923.594077,1676056923.594369,71.000000,0.000000,4270.641113,4288.333496,4319.487305,4319.487305,4304.743652,4294.487305,4279.358887,4311.153809,4276.922852,4282.307617,4470.641113,4492.307617,4366.794922,4414.615234,1992.000000,4.000000,98.000000,,,,0.000000,4.000000,4.000000,4.000000,4.000000,4.000000,4.000000,4.000000,4.000000,4.000000,4.000000,4.000000,4.000000,4.000000,4.000000,100.000000,,,,,,,,,,,,,,,,,,,,,,,,,,,,,,,,,,,,,,,,,,,,,,,,,,,,,,,,,,,,,,,,,,,,,,,,,,,,,,,,,,,,,,
1676056923.601885,1676056923.602177,72.000000,0.000000,4256.538574,4278.077148,4306.282227,4308.077148,4308.846191,4298.589844,4277.307617,4289.871582,4258.589844,4266.153809,4457.179688,4466.538574,4356.282227,4398.717773,2064.000000,4.000000,98.000000,,,,0.000000,4.000000,4.000000,4.000000,4.000000,4.000000,4.000000,4.000000,4.000000,4.000000,4.000000,4.000000,4.000000,4.000000,4.000000,100.000000,,,,,,,,,,,,,,,,,,,,,,,,,,,,,,,,,,,,,,,,,,,,,,,,,,,,,,,,,,,,,,,,,,,,,,,,,,,,,,,,,,,,,,
1676056923.609694,1676056923.609886,73.000000,0.000000,4252.051270,4279.615234,4303.205078,4309.358887,4311.282227,4301.153809,4280.000000,4284.487305,4248.461426,4258.846191,4449.487305,4454.358887,4352.051270,4390.769043,2396.000000,4.000000,98.000000,,,,0.000000,4.000000,4.000000,4.000000,4.000000,4.000000,4.000000,4.000000,4.000000,4.000000,4.000000,4.000000,4.000000,4.000000,4.000000,100.000000,,,,,,,,,,,,,,,,,,,,,,,,,,,,,,,,,,,,,,,,,,,,,,,,,,,,,,,,,,,,,,,,,,,,,,,,,,,,,,,,,,,,,,
1676056923.617502,1676056923.617794,74.000000,0.000000,4258.461426,4280.128418,4308.077148,4313.974121,4311.666504,4301.666504,4281.538574,4287.563965,4244.871582,4258.077148,4451.666504,4458.974121,4353.461426,4397.307617,2366.000000,4.000000,98.000000,,,,0.000000,4.000000,4.000000,4.000000,4.000000,4.000000,4.000000,4.000000,4.000000,4.000000,4.000000,4.000000,4.000000,4.000000,4.000000,100.000000,,,,,,,,,,,,,,,,,,,,,,,,,,,,,,,,,,,,,,,,,,,,,,,,,,,,,,,,,,,,,,,,,,,,,,,,,,,,,,,,,,,,,,
1676056923.625311,1676056923.625603,75.000000,0.000000,4264.358887,4277.051270,4315.000000,4311.922852,4304.871582,4296.282227,4276.794922,4285.256348,4244.871582,4262.948730,4468.333496,4472.051270,4355.256348,4407.948730,2454.000000,4.000000,98.000000,,,,0.000000,4.000000,4.000000,4.000000,4.000000,4.000000,4.000000,4.000000,4.000000,4.000000,4.000000,4.000000,4.000000,4.000000,4.000000,100.000000,,,,,,,,,,,,,,,,,,,,,,,,,,,,,,,,,,,,,,,,,,,,,,,,,,,,,,,,,,,,,,,,,,,,,,,,,,,,,,,,,,,,,,
1676056923.633119,1676056923.633511,76.000000,0.000000,4269.102539,4284.743652,4319.230957,4314.487305,4296.538574,4287.307617,4267.563965,4282.563965,4252.436035,4275.641113,4479.871582,4483.974121,4367.051270,4417.051270,2787.000000,4.000000,98.000000,,,,0.000000,4.000000,4.000000,4.000000,4.000000,4.000000,4.000000,4.000000,4.000000,4.000000,4.000000,4.000000,4.000000,4.000000,4.000000,100.000000,,,,,,,,,,,,,,,,,,,,,,,,,,,,,,,,,,,,,,,,,,,,,,,,,,,,,,,,,,,,,,,,,,,,,,,,,,,,,,,,,,,,,,
1676056923.640927,1676056923.641320,77.000000,0.000000,4278.333496,4297.307617,4320.897461,4321.282227,4292.179688,4276.282227,4264.230957,4287.307617,4262.307617,4284.487305,4477.436035,4490.641113,4379.230957,4427.692383,3209.000000,4.000000,98.000000,,,,0.000000,4.000000,4.000000,4.000000,4.000000,4.000000,4.000000,4.000000,4.000000,4.000000,4.000000,4.000000,4.000000,4.000000,4.000000,100.000000,,,,,,,,,,,,,,,,,,,,,,,,,,,,,,,,,,,,,,,,,,,,,,,,,,,,,,,,,,,,,,,,,,,,,,,,,,,,,,,,,,,,,,
1676056923.648736,1676056923.649228,78.000000,0.000000,4275.000000,4291.410156,4318.846191,4318.589844,4283.205078,4266.153809,4264.102539,4295.384766,4264.487305,4282.692383,4476.794922,4492.948730,4374.615234,4429.615234,2366.000000,4.000000,98.000000,,,,0.000000,4.000000,4.000000,4.000000,4.000000,4.000000,4.000000,4.000000,4.000000,4.000000,4.000000,4.000000,4.000000,4.000000,4.000000,100.000000,1.000000,91.666664,4.000000,4.000000,4.000000,4.000000,4.000000,4.000000,4.000000,4.000000,4.000000,3.000000,4.000000,4.000000,4.000000,4.000000,1.888026,3.672920,0.985331,0.408844,0.200792,2.160597,2.893451,1.059479,0.497105,0.267309,2.024156,2.693264,1.234403,0.788095,0.205515,1.492931,2.789451,1.237468,0.534721,0.233740,1.225928,2.720099,0.699692,0.342165,0.185524,0.203809,2.461790,0.741693,0.296921,0.186147,0.214833,11.843535,0.680013,0.608296,0.231291,1.177380,13.578917,1.213550,0.391199,0.204685,0.409954,17.044622,1.090908,0.439795,0.185099,0.404007,4.713984,0.452101,0.350948,0.292433,0.551017,1.372788,1.068029,0.490120,0.325030,1.695874,2.543653,1.556888,0.802877,0.347277,1.026460,2.702445,1.323430,0.566109,0.261145,1.639339,2.923446,1.279918,0.686845,0.233561
1676056923.656544,1676056923.657036,79.000000,0.000000,4265.512695,4278.974121,4318.333496,4310.128418,4279.102539,4263.461426,4266.025879,4301.153809,4268.717773,4278.846191,4478.717773,4491.538574,4370.384766,4422.179688,2454.000000,4.000000,98.000000,,,,0.000000,4.000000,4.000000,4.000000,4.000000,4.000000,4.000000,4.000000,4.000000,4.000000,4.000000,4.000000,4.000000,4.000000,4.000000,100.000000,,,,,,,,,,,,,,,,,,,,,,,,,,,,,,,,,,,,,,,,,,,,,,,,,,,,,,,,,,,,,,,,,,,,,,,,,,,,,,,,,,,,,,
1676056923.664352,1676056923.664945,80.000000,0.000000,4273.077148,4284.615234,4321.922852,4310.641113,4285.384766,4264.230957,4275.256348,4316.666504,4282.307617,4280.256348,4480.256348,4494.615234,4374.358887,4424.230957,2787.000000,4.000000,98.000000,,,,0.000000,4.000000,4.000000,4.000000,4.000000,4.000000,4.000000,4.000000,4.000000,4.000000,4.000000,4.000000,4.000000,4.000000,4.000000,100.000000,,,,,,,,,,,,,,,,,,,,,,,,,,,,,,,,,,,,,,,,,,,,,,,,,,,,,,,,,,,,,,,,,,,,,,,,,,,,,,,,,,,,,,
1676056923.672161,1676056923.672753,81.000000,0.000000,4282.179688,4291.666504,4327.179688,4316.410156,4286.153809,4264.743652,4281.153809,4331.282227,4289.102539,4283.333496,4483.974121,4500.512695,4375.897461,4429.743652,3209.000000,4.000000,98.000000,,,,0.000000,4.000000,4.000000,4.000000,4.000000,4.000000,4.000000,4.000000,4.000000,4.000000,4.000000,4.000000,4.000000,4.000000,4.000000,100.000000,,,,,,,,,,,,,,,,,,,,,,,,,,,,,,,,,,,,,,,,,,,,,,,,,,,,,,,,,,,,,,,,,,,,,,,,,,,,,,,,,,,,,,
1676056923.679969,1676056923.680462,82.000000,0.000000,4280.641113,4284.615234,4330.000000,4318.205078,4284.871582,4274.487305,4280.769043,4323.589844,4285.641113,4284.358887,4484.487305,4500.512695,4373.974121,4424.230957,2366.000000,4.000000,98.000000,,,,0.000000,4.000000,4.000000,4.000000,4.000000,4.000000,4.000000,4.000000,4.000000,4.000000,4.000000,4.000000,4.000000,4.000000,4.000000,100.000000,,,,,,,,,,,,,,,,,,,,,,,,,,,,,,,,,,,,,,,,,,,,,,,,,,,,,,,,,,,,,,,,,,,,,,,,,,,,,,,,,,,,,,
1676056923.687778,1676056923.688270,83.000000,0.000000,4276.538574,4278.333496,4323.077148,4316.410156,4292.563965,4290.000000,4281.666504,4310.897461,4273.333496,4279.102539,4477.051270,4491.666504,4367.436035,4414.230957,2454.000000,4.000000,98.000000,,,,0.000000,4.000000,4.000000,4.000000,4.000000,4.000000,4.000000,4.000000,4.000000,4.000000,4.000000,4.000000,4.000000,4.000000,4.000000,100.000000,,,,,,,,,,,,,,,,,,,,,,,,,,,,,,,,,,,,,,,,,,,,,,,,,,,,,,,,,,,,,,,,,,,,,,,,,,,,,,,,,,,,,,
1676056923.695586,1676056923.695979,84.000000,0.000000,4262.692383,4272.948730,4309.871582,4313.205078,4295.256348,4298.077148,4285.641113,4305.000000,4256.666504,4266.538574,4465.256348,4476.025879,4355.256348,4401.922852,2787.000000,4.000000,98.000000,,,,0.000000,4.000000,4.000000,4.000000,4.000000,4.000000,4.000000,4.000000,4.000000,4.000000,4.000000,4.000000,4.000000,4.000000,4.000000,100.000000,,,,,,,,,,,,,,,,,,,,,,,,,,,,,,,,,,,,,,,,,,,,,,,,,,,,,,,,,,,,,,,,,,,,,,,,,,,,,,,,,,,,,,
1676056923.703394,1676056923.703787,85.000000,0.000000,4246.025879,4259.615234,4296.794922,4301.922852,4286.794922,4298.846191,4282.563965,4296.025879,4247.436035,4252.948730,4448.461426,4457.051270,4346.025879,4384.230957,3209.000000,4.000000,98.000000,,,,0.000000,4.000000,4.000000,4.000000,4.000000,4.000000,4.000000,4.000000,4.000000,4.000000,4.000000,4.000000,4.000000,4.000000,4.000000,100.000000,,,,,,,,,,,,,,,,,,,,,,,,,,,,,,,,,,,,,,,,,,,,,,,,,,,,,,,,,,,,,,,,,,,,,,,,,,,,,,,,,,,,,,
1676056923.711203,1676056923.711496,86.000000,0.000000,4242.948730,4245.512695,4282.820313,4286.794922,4279.871582,4295.384766,4272.179688,4281.666504,4241.410156,4242.820313,4434.230957,4440.641113,4341.794922,4370.512695,2366.000000,4.000000,98.000000,,,,0.000000,4.000000,4.000000,4.000000,4.000000,4.000000,4.000000,4.000000,4.000000,4.000000,4.000000,4.000000,4.000000,4.000000,4.000000,100.000000,,,,,,,,,,,,,,,,,,,,,,,,,,,,,,,,,,,,,,,,,,,,,,,,,,,,,,,,,,,,,,,,,,,,,,,,,,,,,,,,,,,,,,
1676056923.719011,1676056923.719304,87.000000,0.000000,4250.128418,4244.230957,4277.820313,4286.794922,4277.563965,4287.820313,4262.948730,4276.282227,4239.102539,4242.948730,4433.974121,4441.666504,4342.179688,4371.153809,2454.000000,4.000000,98.000000,,,,0.000000,4.000000,4.000000,4.000000,4.000000,4.000000,4.000000,4.000000,4.000000,4.000000,4.000000,4.000000,4.000000,4.000000,4.000000,100.000000,,,,,,,,,,,,,,,,,,,,,,,,,,,,,,,,,,,,,,,,,,,,,,,,,,,,,,,,,,,,,,,,,,,,,,,,,,,,,,,,,,,,,,
1676056923.726819,1676056923.727013,88.000000,0.000000,4258.077148,4254.743652,4286.922852,4296.922852,4275.512695,4281.153809,4255.769043,4276.282227,4242.436035,4246.410156,4440.000000,4451.666504,4346.538574,4383.589844,2787.000000,4.000000,98.000000,,,,0.000000,4.000000,4.000000,4.000000,4.000000,4.000000,4.000000,4.000000,4.000000,4.000000,4.000000,4.000000,4.000000,4.000000,4.000000,100.000000,,,,,,,,,,,,,,,,,,,,,,,,,,,,,,,,,,,,,,,,,,,,,,,,,,,,,,,,,,,,,,,,,,,,,,,,,,,,,,,,,,,,,,
1676056923.734628,1676056923.734821,89.000000,0.000000,4265.512695,4264.358887,4296.666504,4302.436035,4274.487305,4276.282227,4253.717773,4277.948730,4251.153809,4248.846191,4450.641113,4460.769043,4355.000000,4396.666504,3209.000000,4.000000,98.000000,,,,0.000000,4.000000,4.000000,4.000000,4.000000,4.000000,4.000000,4.000000,4.000000,4.000000,4.000000,4.000000,4.000000,4.000000,4.000000,100.000000,,,,,,,,,,,,,,,,,,,,,,,,,,,,,,,,,,,,,,,,,,,,,,,,,,,,,,,,,,,,,,,,,,,,,,,,,,,,,,,,,,,,,,
1676056923.742436,1676056923.742530,90.000000,0.000000,4266.282227,4265.769043,4297.436035,4300.897461,4271.410156,4274.230957,4260.256348,4289.615234,4262.563965,4254.871582,4459.615234,4469.230957,4362.692383,4397.307617,2366.000000,4.000000,98.000000,,,,0.000000,4.000000,4.000000,4.000000,4.000000,4.000000,4.000000,4.000000,4.000000,4.000000,4.000000,4.000000,4.000000,4.000000,4.000000,100.000000,,,,,,,,,,,,,,,,,,,,,,,,,,,,,,,,,,,,,,,,,,,,,,,,,,,,,,,,,,,,,,,,,,,,,,,,,,,,,,,,,,,,,,
1676056923.750245,1676056923.750338,91.000000,0.000000,4265.769043,4261.410156,4295.256348,4295.128418,4266.538574,4270.897461,4264.871582,4297.436035,4263.717773,4255.256348,4449.102539,4465.256348,4360.000000,4388.333496,2454.000000,4.000000,98.000000,,,,0.000000,4.000000,4.000000,4.000000,4.000000,4.000000,4.000000,4.000000,4.000000,4.000000,4.000000,4.000000,4.000000,4.000000,4.000000,100.000000,,,,,,,,,,,,,,,,,,,,,,,,,,,,,,,,,,,,,,,,,,,,,,,,,,,,,,,,,,,,,,,,,,,,,,,,,,,,,,,,,,,,,,
1676056923.758053,1676056923.758047,92.000000,0.000000,4271.282227,4261.282227,4292.820313,4293.077148,4265.897461,4264.358887,4258.717773,4292.051270,4251.153809,4247.179688,4437.051270,4457.051270,4350.256348,4383.717773,2787.000000,4.000000,98.000000,,,,0.000000,4.000000,4.000000,4.000000,4.000000,4.000000,4.000000,4.000000,4.000000,4.000000,4.000000,4.000000,4.000000,4.000000,4.000000,100.000000,,,,,,,,,,,,,,,,,,,,,,,,,,,,,,,,,,,,,,,,,,,,,,,,,,,,,,,,,,,,,,,,,,,,,,,,,,,,,,,,,,,,,,
1676056923.765861,1676056923.765855,93.000000,0.000000,4282.051270,4272.692383,4302.179688,4305.000000,4274.615234,4261.922852,4257.307617,4294.615234,4252.179688,4251.025879,4456.794922,4472.563965,4358.974121,4393.846191,3209.000000,4.000000,98.000000,,,,0.000000,4.000000,4.000000,4.000000,4.000000,4.000000,4.000000,4.000000,4.000000,4.000000,4.000000,4.000000,4.000000,4.000000,4.000000,100.000000,,,,,,,,,,,,,,,,,,,,,,,,,,,,,,,,,,,,,,,,,,,,,,,,,,,,,,,,,,,,,,,,,,,,,,,,,,,,,,,,,,,,,,
1676056923.773670,1676056923.773564,94.000000,0.000000,4291.922852,4283.717773,4323.717773,4321.794922,4281.410156,4266.025879,4265.769043,4306.666504,4267.563965,4265.512695,4478.077148,4494.487305,4377.820313,4408.333496,2366.000000,4.000000,98.000000,,,,0.000000,4.000000,4.000000,4.000000,4.000000,4.000000,4.000000,4.000000,4.000000,4.000000,4.000000,4.000000,4.000000,4.000000,4.000000,100.000000,,,,,,,,,,,,,,,,,1.458545,4.287597,1.010076,0.474793,0.201133,2.019920,3.578325,0.988543,0.516265,0.283893,1.800631,3.380806,1.325327,0.834917,0.235384,1.377639,3.335422,1.165277,0.597510,0.241214,1.176776,3.082038,0.645431,0.323343,0.191625,0.230705,1.962581,0.630418,0.304467,0.199342,0.261268,10.396906,0.885583,0.500507,0.271967,1.172570,15.448456,1.596138,0.339619,0.240613,0.451988,19.091751,1.241558,0.452660,0.223435,0.357573,4.349236,0.428332,0.360270,0.352339,0.475791,1.175933,1.184037,0.536113,0.353112,1.191892,1.975548,1.506172,0.731094,0.348012,0.838507,2.333671,1.384643,0.627806,0.309384,1.383049,3.008882,1.359317,0.725751,0.260638
1676056923.781478,1676056923.781472,95.000000,0.000000,4292.948730,4283.333496,4332.692383,4327.179688,4281.410156,4270.000000,4272.307617,4298.717773,4258.717773,4265.641113,4465.897461,4493.077148,4368.717773,4407.563965,2454.000000,4.000000,98.000000,,,,0.000000,4.000000,4.000000,4.000000,4.000000,4.000000,4.000000,4.000000,4.000000,4.000000,4.000000,4.000000,4.000000,4.000000,4.000000,100.000000,,,,,,,,,,,,,,,,,,,,,,,,,,,,,,,,,,,,,,,,,,,,,,,,,,,,,,,,,,,,,,,,,,,,,,,,,,,,,,,,,,,,,,
1676056923.789287,1676056923.789280,96.000000,0.000000,4289.102539,4281.410156,4327.051270,4327.436035,4286.153809,4275.641113,4281.538574,4292.179688,4247.692383,4259.358887,4461.922852,4495.641113,4356.282227,4406.922852,2787.000000,4.000000,98.000000,,,,0.000000,4.000000,4.000000,4.000000,4.000000,4.000000,4.000000,4.000000,4.000000,4.000000,4.000000,4.000000,4.000000,4.000000,4.000000,100.000000,,,,,,,,,,,,,,,,,,,,,,,,,,,,,,,,,,,,,,,,,,,,,,,,,,,,,,,,,,,,,,,,,,,,,,,,,,,,,,,,,,,,,,
1676056923.797095,1676056923.797189,97.000000,0.000000,4284.743652,4275.128418,4323.205078,4326.666504,4289.487305,4281.410156,4287.563965,4304.230957,4259.358887,4263.077148,4478.461426,4502.179688,4368.846191,4413.205078,3209.000000,4.000000,98.000000,,,,0.000000,4.000000,4.000000,4.000000,4.000000,4.000000,4.000000,4.000000,4.000000,4.000000,4.000000,4.000000,4.000000,4.000000,4.000000,100.000000,,,,,,,,,,,,,,,,,,,,,,,,,,,,,,,,,,,,,,,,,,,,,,,,,,,,,,,,,,,,,,,,,,,,,,,,,,,,,,,,,,,,,,
1676056923.804903,1676056923.804997,98.000000,0.000000,4280.000000,4268.589844,4322.820313,4326.282227,4283.205078,4280.000000,4282.948730,4304.487305,4265.641113,4267.692383,4477.179688,4492.307617,4377.820313,4407.436035,2366.000000,4.000000,98.000000,,,,0.000000,4.000000,4.000000,4.000000,4.000000,4.000000,4.000000,4.000000,4.000000,4.000000,4.000000,4.000000,4.000000,4.000000,4.000000,100.000000,,,,,,,,,,,,,,,,,,,,,,,,,,,,,,,,,,,,,,,,,,,,,,,,,,,,,,,,,,,,,,,,,,,,,,,,,,,,,,,,,,,,,,
1676056923.812712,1676056923.812906,99.000000,0.000000,4279.871582,4274.871582,4319.743652,4326.538574,4280.512695,4277.179688,4275.769043,4291.794922,4261.410156,4268.077148,4463.589844,4487.948730,4370.384766,4397.820313,2454.000000,4.000000,98.000000,,,,0.000000,4.000000,4.000000,4.000000,4.000000,4.000000,4.000000,4.000000,4.000000,4.000000,4.000000,4.000000,4.000000,4.000000,4.000000,100.000000,,,,,,,,,,,,,,,,,,,,,,,,,,,,,,,,,,,,,,,,,,,,,,,,,,,,,,,,,,,,,,,,,,,,,,,,,,,,,,,,,,,,,,
1676056923.820520,1676056923.820714,100.000000,0.000000,4287.179688,4274.615234,4314.743652,4321.025879,4284.615234,4278.461426,4276.025879,4288.974121,4261.922852,4264.615234,4459.615234,4486.922852,4366.153809,4396.794922,2787.000000,4.000000,98.000000,,,,0.000000,4.000000,4.000000,4.000000,4.000000,4.000000,4.000000,4.000000,4.000000,4.000000,4.000000,4.000000,4.000000,4.000000,4.000000,100.000000,,,,,,,,,,,,,,,,,,,,,,,,,,,,,,,,,,,,,,,,,,,,,,,,,,,,,,,,,,,,,,,,,,,,,,,,,,,,,,,,,,,,,,
1676056923.828328,1676056923.828622,101.000000,0.000000,4286.410156,4266.282227,4309.230957,4313.589844,4280.512695,4278.077148,4277.307617,4296.025879,4267.563965,4263.974121,4461.153809,4478.974121,4367.563965,4398.589844,3209.000000,4.000000,98.000000,,,,0.000000,4.000000,4.000000,4.000000,4.000000,4.000000,4.000000,4.000000,4.000000,4.000000,4.000000,4.000000,4.000000,4.000000,4.000000,100.000000,,,,,,,,,,,,,,,,,,,,,,,,,,,,,,,,,,,,,,,,,,,,,,,,,,,,,,,,,,,,,,,,,,,,,,,,,,,,,,,,,,,,,,
1676056923.836137,1676056923.836431,102.000000,0.000000,4271.538574,4263.589844,4300.641113,4307.051270,4272.692383,4268.077148,4268.461426,4296.922852,4264.230957,4264.487305,4460.128418,4475.641113,4360.128418,4395.128418,2366.000000,4.000000,98.000000,,,,0.000000,4.000000,4.000000,4.000000,4.000000,4.000000,4.000000,4.000000,4.000000,4.000000,4.000000,4.000000,4.000000,4.000000,4.000000,100.000000,,,,,,,,,,,,,,,,,,,,,,,,,,,,,,,,,,,,,,,,,,,,,,,,,,,,,,,,,,,,,,,,,,,,,,,,,,,,,,,,,,,,,,
1676056923.843945,1676056923.844339,103.000000,0.000000,4260.384766,4253.461426,4289.230957,4296.922852,4269.358887,4257.051270,4258.205078,4292.051270,4253.077148,4255.512695,4450.128418,4467.436035,4348.077148,4384.230957,2454.000000,4.000000,98.000000,,,,0.000000,4.000000,4.000000,4.000000,4.000000,4.000000,4.000000,4.000000,4.000000,4.000000,4.000000,4.000000,4.000000,4.000000,4.000000,100.000000,,,,,,,,,,,,,,,,,,,,,,,,,,,,,,,,,,,,,,,,,,,,,,,,,,,,,,,,,,,,,,,,,,,,,,,,,,,,,,,,,,,,,,
1676056923.851754,1676056923.852148,104.000000,0.000000,4261.282227,4245.512695,4286.794922,4291.922852,4267.820313,4267.692383,4269.358887,4298.077148,4252.948730,4246.538574,4438.077148,4454.871582,4342.563965,4373.974121,2787.000000,4.000000,98.000000,,,,0.000000,4.000000,4.000000,4.000000,4.000000,4.000000,4.000000,4.000000,4.000000,4.000000,4.000000,4.000000,4.000000,4.000000,4.000000,100.000000,,,,,,,,,,,,,,,,,,,,,,,,,,,,,,,,,,,,,,,,,,,,,,,,,,,,,,,,,,,,,,,,,,,,,,,,,,,,,,,,,,,,,,
1676056923.859562,1676056923.859856,105.000000,0.000000,4267.436035,4254.102539,4293.589844,4298.589844,4272.051270,4287.692383,4292.563965,4308.717773,4264.871582,4254.230957,4445.769043,4463.846191,4346.794922,4376.538574,3209.000000,4.000000,98.000000,,,,0.000000,4.000000,4.000000,4.000000,4.000000,4.000000,4.000000,4.000000,4.000000,4.000000,4.000000,4.000000,4.000000,4.000000,4.000000,100.000000,,,,,,,,,,,,,,,,,,,,,,,,,,,,,,,,,,,,,,,,,,,,,,,,,,,,,,,,,,,,,,,,,,,,,,,,,,,,,,,,,,,,,,
1676056923.867370,1676056923.867665,106.000000,0.000000,4274.871582,4259.487305,4296.922852,4304.615234,4278.077148,4287.563965,4299.743652,4310.512695,4269.102539,4273.333496,4460.256348,4479.615234,4355.000000,4387.948730,2366.000000,4.000000,98.000000,,,,0.000000,4.000000,4.000000,4.000000,4.000000,4.000000,4.000000,4.000000,4.000000,4.000000,4.000000,4.000000,4.000000,4.000000,4.000000,100.000000,,,,,,,,,,,,,,,,,,,,,,,,,,,,,,,,,,,,,,,,,,,,,,,,,,,,,,,,,,,,,,,,,,,,,,,,,,,,,,,,,,,,,,
1676056923.875179,1676056923.875373,107.000000,0.000000,4276.794922,4258.077148,4299.487305,4308.333496,4278.846191,4279.743652,4296.922852,4308.077148,4265.128418,4279.358887,4463.205078,4480.641113,4357.948730,4395.256348,2454.000000,4.000000,98.000000,,,,0.000000,4.000000,4.000000,4.000000,4.000000,4.000000,4.000000,4.000000,4.000000,4.000000,4.000000,4.000000,4.000000,4.000000,4.000000,100.000000,,,,,,,,,,,,,,,,,,,,,,,,,,,,,,,,,,,,,,,,,,,,,,,,,,,,,,,,,,,,,,,,,,,,,,,,,,,,,,,,,,,,,,
1676056923.882987,1676056923.883182,108.000000,0.000000,4269.743652,4257.179688,4302.051270,4308.717773,4276.410156,4281.282227,4297.179688,4302.820313,4262.051270,4268.461426,4460.769043,4475.512695,4352.436035,4393.589844,2787.000000,4.000000,98.000000,,,,0.000000,4.000000,4.000000,4.000000,4.000000,4.000000,4.000000,4.000000,4.000000,4.000000,4.000000,4.000000,4.000000,4.000000,4.000000,100.000000,,,,,,,,,,,,,,,,,,,,,,,,,,,,,,,,,,,,,,,,,,,,,,,,,,,,,,,,,,,,,,,,,,,,,,,,,,,,,,,,,,,,,,
1676056923.890796,1676056923.890890,109.000000,0.000000,4269.358887,4255.384766,4303.205078,4306.666504,4277.179688,4280.769043,4297.051270,4295.256348,4263.589844,4266.282227,4462.179688,4476.025879,4349.743652,4390.512695,3209.000000,4.000000,98.000000,,,,0.000000,4.000000,4.000000,4.000000,4.000000,4.000000,4.000000,4.000000,4.000000,4.000000,4.000000,4.000000,4.000000,4.000000,4.000000,100.000000,,,,,,,,,,,,,,,,,,,,,,,,,,,,,,,,,,,,,,,,,,,,,,,,,,,,,,,,,,,,,,,,,,,,,,,,,,,,,,,,,,,,,,
