title:Psychopy_Vishwa_1_2023-02-10T113903.427860, start timestamp:1676057943.345009, stop timestamp:1676058004.359837, headset type:EPOCX, headset serial:E2020A42, headset firmware:720, channels:125, sampling rate:eeg_128;pow_8, samples:7815      , version:2.1, 
Timestamp,OriginalTimestamp,EEG.Counter,EEG.Interpolated,EEG.AF3,EEG.F7,EEG.F3,EEG.FC5,EEG.T7,EEG.P7,EEG.O1,EEG.O2,EEG.P8,EEG.T8,EEG.FC6,EEG.F4,EEG.F8,EEG.AF4,EEG.RawCq,EEG.Battery,EEG.BatteryPercent,MarkerIndex,MarkerType,MarkerValueInt,EEG.MarkerHardware,CQ.AF3,CQ.F7,CQ.F3,CQ.FC5,CQ.T7,CQ.P7,CQ.O1,CQ.O2,CQ.P8,CQ.T8,CQ.FC6,CQ.F4,CQ.F8,CQ.AF4,CQ.Overall,EQ.SampleRateQuality,EQ.OVERALL,EQ.AF3,EQ.F7,EQ.F3,EQ.FC5,EQ.T7,EQ.P7,EQ.O1,EQ.O2,EQ.P8,EQ.T8,EQ.FC6,EQ.F4,EQ.F8,EQ.AF4,POW.AF3.Theta,POW.AF3.Alpha,POW.AF3.BetaL,POW.AF3.BetaH,POW.AF3.Gamma,POW.F7.Theta,POW.F7.Alpha,POW.F7.BetaL,POW.F7.BetaH,POW.F7.Gamma,POW.F3.Theta,POW.F3.Alpha,POW.F3.BetaL,POW.F3.BetaH,POW.F3.Gamma,POW.FC5.Theta,POW.FC5.Alpha,POW.FC5.BetaL,POW.FC5.BetaH,POW.FC5.Gamma,POW.T7.Theta,POW.T7.Alpha,POW.T7.BetaL,POW.T7.BetaH,POW.T7.Gamma,POW.P7.Theta,POW.P7.Alpha,POW.P7.BetaL,POW.P7.BetaH,POW.P7.Gamma,POW.O1.Theta,POW.O1.Alpha,POW.O1.BetaL,POW.O1.BetaH,POW.O1.Gamma,POW.O2.Theta,POW.O2.Alpha,POW.O2.BetaL,POW.O2.BetaH,POW.O2.Gamma,POW.P8.Theta,POW.P8.Alpha,POW.P8.BetaL,POW.P8.BetaH,POW.P8.Gamma,POW.T8.Theta,POW.T8.Alpha,POW.T8.BetaL,POW.T8.BetaH,POW.T8.Gamma,POW.FC6.Theta,POW.FC6.Alpha,POW.FC6.BetaL,POW.FC6.BetaH,POW.FC6.Gamma,POW.F4.Theta,POW.F4.Alpha,POW.F4.BetaL,POW.F4.BetaH,POW.F4.Gamma,POW.F8.Theta,POW.F8.Alpha,POW.F8.BetaL,POW.F8.BetaH,POW.F8.Gamma,POW.AF4.Theta,POW.AF4.Alpha,POW.AF4.BetaL,POW.AF4.BetaH,POW.AF4.Gamma
1676057943.345009,1676057943.345770,108.000000,0.000000,4260.512695,4246.410156,4296.282227,4279.487305,4279.102539,4282.563965,4307.692383,4322.692383,4283.077148,4266.282227,4472.692383,4476.922852,4341.025879,4378.846191,2787.000000,4.000000,94.000000,,,,0.000000,4.000000,4.000000,4.000000,4.000000,4.000000,4.000000,4.000000,4.000000,4.000000,4.000000,4.000000,4.000000,4.000000,4.000000,100.000000,,,,,,,,,,,,,,,,,,,,,,,,,,,,,,,,,,,,,,,,,,,,,,,,,,,,,,,,,,,,,,,,,,,,,,,,,,,,,,,,,,,,,,
1676057943.352817,1676057943.353479,109.000000,0.000000,4253.717773,4251.282227,4292.179688,4276.410156,4284.615234,4278.077148,4292.820313,4338.974121,4283.717773,4273.974121,4472.692383,4477.051270,4344.102539,4374.871582,3423.000000,4.000000,94.000000,,,,0.000000,4.000000,4.000000,4.000000,4.000000,4.000000,4.000000,4.000000,4.000000,4.000000,4.000000,4.000000,4.000000,4.000000,4.000000,100.000000,,,,,,,,,,,,,,,,,,,,,,,,,,,,,,,,,,,,,,,,,,,,,,,,,,,,,,,,,,,,,,,,,,,,,,,,,,,,,,,,,,,,,,
1676057943.360626,1676057943.361287,110.000000,0.000000,4261.025879,4265.256348,4298.717773,4282.948730,4281.666504,4283.717773,4301.538574,4343.974121,4286.025879,4282.948730,4480.769043,4490.000000,4352.820313,4383.333496,2508.000000,4.000000,94.000000,,,,0.000000,4.000000,4.000000,4.000000,4.000000,4.000000,4.000000,4.000000,4.000000,4.000000,4.000000,4.000000,4.000000,4.000000,4.000000,100.000000,,,,,,,,,,,,,,,,,2.318093,5.350760,0.792776,0.235542,0.156640,1.305701,3.403496,0.497744,0.219256,0.121293,3.199388,4.211684,0.832329,0.299106,0.117773,1.783011,3.361893,0.581079,0.325195,0.101023,0.417483,0.555048,0.467389,0.413174,0.505124,0.178739,0.540375,0.455276,0.218019,0.155235,0.915742,2.219252,1.687438,0.493635,0.716276,0.559768,1.550785,0.964182,0.603508,0.743548,0.543607,0.724991,0.193874,0.196046,0.093539,1.317558,1.703821,0.313390,0.331553,0.318994,1.366115,3.546970,0.700139,0.329169,0.238655,2.504953,6.748967,1.370102,0.319528,0.242201,4.098203,3.327398,0.574496,0.770233,0.228552,32.577080,8.257482,0.968278,0.423429,0.250112
1676057943.368434,1676057943.368996,111.000000,0.000000,4264.102539,4262.051270,4298.205078,4284.487305,4282.692383,4282.563965,4297.179688,4314.358887,4281.410156,4276.538574,4479.615234,4484.871582,4352.051270,4382.692383,2847.000000,4.000000,94.000000,,,,0.000000,4.000000,4.000000,4.000000,4.000000,4.000000,4.000000,4.000000,4.000000,4.000000,4.000000,4.000000,4.000000,4.000000,4.000000,100.000000,,,,,,,,,,,,,,,,,,,,,,,,,,,,,,,,,,,,,,,,,,,,,,,,,,,,,,,,,,,,,,,,,,,,,,,,,,,,,,,,,,,,,,
1676057943.376243,1676057943.376904,112.000000,0.000000,4259.871582,4251.794922,4290.769043,4279.615234,4279.230957,4269.358887,4274.615234,4288.461426,4272.307617,4264.358887,4467.307617,4469.871582,4343.461426,4373.077148,2787.000000,4.000000,94.000000,,,,0.000000,4.000000,4.000000,4.000000,4.000000,4.000000,4.000000,4.000000,4.000000,4.000000,4.000000,4.000000,4.000000,4.000000,4.000000,100.000000,,,,,,,,,,,,,,,,,,,,,,,,,,,,,,,,,,,,,,,,,,,,,,,,,,,,,,,,,,,,,,,,,,,,,,,,,,,,,,,,,,,,,,
1676057943.384051,1676057943.384713,113.000000,0.000000,4266.153809,4257.692383,4297.948730,4289.230957,4275.897461,4268.846191,4280.897461,4294.487305,4274.102539,4265.897461,4467.948730,4475.256348,4345.769043,4379.743652,3423.000000,4.000000,94.000000,,,,0.000000,4.000000,4.000000,4.000000,4.000000,4.000000,4.000000,4.000000,4.000000,4.000000,4.000000,4.000000,4.000000,4.000000,4.000000,100.000000,,,,,,,,,,,,,,,,,,,,,,,,,,,,,,,,,,,,,,,,,,,,,,,,,,,,,,,,,,,,,,,,,,,,,,,,,,,,,,,,,,,,,,
1676057943.391859,1676057943.392621,114.000000,0.000000,4276.410156,4265.641113,4309.358887,4298.205078,4285.769043,4277.307617,4278.077148,4289.230957,4274.230957,4272.436035,4475.000000,4481.922852,4352.820313,4390.769043,2508.000000,4.000000,94.000000,,,,0.000000,4.000000,4.000000,4.000000,4.000000,4.000000,4.000000,4.000000,4.000000,4.000000,4.000000,4.000000,4.000000,4.000000,4.000000,100.000000,,,,,,,,,,,,,,,,,,,,,,,,,,,,,,,,,,,,,,,,,,,,,,,,,,,,,,,,,,,,,,,,,,,,,,,,,,,,,,,,,,,,,,
1676057943.399668,1676057943.400430,115.000000,0.000000,4280.512695,4267.436035,4312.948730,4296.410156,4293.461426,4279.102539,4250.769043,4252.563965,4267.948730,4281.410156,4468.333496,4472.179688,4354.487305,4386.153809,2847.000000,4.000000,94.000000,,,,0.000000,4.000000,4.000000,4.000000,4.000000,4.000000,4.000000,4.000000,4.000000,4.000000,4.000000,4.000000,4.000000,4.000000,4.000000,100.000000,,,,,,,,,,,,,,,,,,,,,,,,,,,,,,,,,,,,,,,,,,,,,,,,,,,,,,,,,,,,,,,,,,,,,,,,,,,,,,,,,,,,,,
1676057943.407476,1676057943.408338,116.000000,0.000000,4280.384766,4266.410156,4311.666504,4295.897461,4285.897461,4279.743652,4246.025879,4216.410156,4261.282227,4286.282227,4454.102539,4456.282227,4347.307617,4373.974121,2787.000000,4.000000,94.000000,,,,0.000000,4.000000,4.000000,4.000000,4.000000,4.000000,4.000000,4.000000,4.000000,4.000000,4.000000,4.000000,4.000000,4.000000,4.000000,100.000000,,,,,,,,,,,,,,,,,,,,,,,,,,,,,,,,,,,,,,,,,,,,,,,,,,,,,,,,,,,,,,,,,,,,,,,,,,,,,,,,,,,,,,
1676057943.415285,1676057943.416146,117.000000,0.000000,4269.230957,4257.563965,4302.307617,4290.384766,4282.307617,4282.820313,4267.692383,4207.692383,4251.794922,4271.410156,4446.025879,4442.179688,4331.538574,4362.692383,3423.000000,4.000000,94.000000,,,,0.000000,4.000000,4.000000,4.000000,4.000000,4.000000,4.000000,4.000000,4.000000,4.000000,4.000000,4.000000,4.000000,4.000000,4.000000,100.000000,,,,,,,,,,,,,,,,,,,,,,,,,,,,,,,,,,,,,,,,,,,,,,,,,,,,,,,,,,,,,,,,,,,,,,,,,,,,,,,,,,,,,,
1676057943.423093,1676057943.424055,118.000000,0.000000,4251.794922,4246.538574,4289.871582,4277.948730,4278.846191,4283.589844,4286.025879,4228.589844,4253.205078,4253.974121,4443.717773,4436.025879,4323.333496,4353.333496,2508.000000,4.000000,94.000000,,,,0.000000,4.000000,4.000000,4.000000,4.000000,4.000000,4.000000,4.000000,4.000000,4.000000,4.000000,4.000000,4.000000,4.000000,4.000000,100.000000,,,,,,,,,,,,,,,,,,,,,,,,,,,,,,,,,,,,,,,,,,,,,,,,,,,,,,,,,,,,,,,,,,,,,,,,,,,,,,,,,,,,,,
1676057943.430901,1676057943.431863,119.000000,0.000000,4245.641113,4245.897461,4284.230957,4275.512695,4269.230957,4283.974121,4300.641113,4260.769043,4270.384766,4258.974121,4443.717773,4441.282227,4327.563965,4352.179688,2847.000000,4.000000,94.000000,,,,0.000000,4.000000,4.000000,4.000000,4.000000,4.000000,4.000000,4.000000,4.000000,4.000000,4.000000,4.000000,4.000000,4.000000,4.000000,100.000000,,,,,,,,,,,,,,,,,,,,,,,,,,,,,,,,,,,,,,,,,,,,,,,,,,,,,,,,,,,,,,,,,,,,,,,,,,,,,,,,,,,,,,
1676057943.438710,1676057943.439771,120.000000,0.000000,4251.025879,4249.358887,4281.410156,4281.153809,4272.051270,4285.769043,4312.563965,4288.205078,4282.051270,4265.384766,4450.256348,4452.307617,4329.230957,4360.769043,2787.000000,4.000000,94.000000,,,,0.000000,4.000000,4.000000,4.000000,4.000000,4.000000,4.000000,4.000000,4.000000,4.000000,4.000000,4.000000,4.000000,4.000000,4.000000,100.000000,,,,,,,,,,,,,,,,,,,,,,,,,,,,,,,,,,,,,,,,,,,,,,,,,,,,,,,,,,,,,,,,,,,,,,,,,,,,,,,,,,,,,,
1676057943.446518,1676057943.447580,121.000000,0.000000,4250.000000,4246.922852,4281.410156,4279.871582,4285.512695,4284.102539,4304.871582,4306.794922,4280.128418,4255.769043,4458.333496,4463.205078,4324.871582,4366.282227,3423.000000,4.000000,94.000000,,,,0.000000,4.000000,4.000000,4.000000,4.000000,4.000000,4.000000,4.000000,4.000000,4.000000,4.000000,4.000000,4.000000,4.000000,4.000000,100.000000,,,,,,,,,,,,,,,,,,,,,,,,,,,,,,,,,,,,,,,,,,,,,,,,,,,,,,,,,,,,,,,,,,,,,,,,,,,,,,,,,,,,,,
1676057943.454327,1676057943.455288,122.000000,0.000000,4243.205078,4245.000000,4288.589844,4276.666504,4282.820313,4272.692383,4284.230957,4316.666504,4278.589844,4250.384766,4462.436035,4470.769043,4323.974121,4366.794922,2508.000000,4.000000,94.000000,,,,0.000000,4.000000,4.000000,4.000000,4.000000,4.000000,4.000000,4.000000,4.000000,4.000000,4.000000,4.000000,4.000000,4.000000,4.000000,100.000000,,,,,,,,,,,,,,,,,,,,,,,,,,,,,,,,,,,,,,,,,,,,,,,,,,,,,,,,,,,,,,,,,,,,,,,,,,,,,,,,,,,,,,
1676057943.462135,1676057943.463097,123.000000,0.000000,4253.846191,4251.410156,4299.102539,4285.384766,4275.256348,4265.000000,4273.974121,4317.948730,4281.794922,4255.128418,4467.692383,4480.384766,4330.256348,4374.615234,2847.000000,4.000000,94.000000,,,,0.000000,4.000000,4.000000,4.000000,4.000000,4.000000,4.000000,4.000000,4.000000,4.000000,4.000000,4.000000,4.000000,4.000000,4.000000,100.000000,,,,,,,,,,,,,,,,,,,,,,,,,,,,,,,,,,,,,,,,,,,,,,,,,,,,,,,,,,,,,,,,,,,,,,,,,,,,,,,,,,,,,,
1676057943.469943,1676057943.470805,124.000000,0.000000,4271.410156,4265.000000,4308.846191,4302.307617,4287.820313,4273.461426,4281.922852,4316.282227,4283.333496,4251.922852,4476.538574,4492.948730,4340.769043,4386.922852,2787.000000,4.000000,94.000000,,,,0.000000,4.000000,4.000000,4.000000,4.000000,4.000000,4.000000,4.000000,4.000000,4.000000,4.000000,4.000000,4.000000,4.000000,4.000000,100.000000,,,,,,,,,,,,,,,,,,,,,,,,,,,,,,,,,,,,,,,,,,,,,,,,,,,,,,,,,,,,,,,,,,,,,,,,,,,,,,,,,,,,,,
1676057943.477752,1676057943.478614,125.000000,0.000000,4273.461426,4268.589844,4314.487305,4305.897461,4290.256348,4273.205078,4274.230957,4312.563965,4277.692383,4248.717773,4476.922852,4498.589844,4343.974121,4389.743652,3423.000000,4.000000,94.000000,,,,0.000000,4.000000,4.000000,4.000000,4.000000,4.000000,4.000000,4.000000,4.000000,4.000000,4.000000,4.000000,4.000000,4.000000,4.000000,100.000000,,,,,,,,,,,,,,,,,,,,,,,,,,,,,,,,,,,,,,,,,,,,,,,,,,,,,,,,,,,,,,,,,,,,,,,,,,,,,,,,,,,,,,
1676057943.485560,1676057943.486322,126.000000,0.000000,4271.025879,4261.282227,4312.692383,4295.512695,4278.205078,4257.307617,4242.948730,4302.692383,4267.692383,4250.000000,4467.692383,4492.179688,4339.487305,4382.692383,2508.000000,4.000000,94.000000,,,,0.000000,4.000000,4.000000,4.000000,4.000000,4.000000,4.000000,4.000000,4.000000,4.000000,4.000000,4.000000,4.000000,4.000000,4.000000,100.000000,,,,,,,,,,,,,,,,,2.598732,9.020103,0.921325,0.254622,0.164263,1.261183,5.501431,0.546770,0.244059,0.129747,3.876946,7.102908,0.909629,0.344012,0.119569,2.008094,5.261428,0.584738,0.341988,0.108988,0.476103,0.881175,0.543023,0.395359,0.450853,0.223684,0.920322,0.415061,0.205948,0.154566,1.023525,3.065269,2.135972,0.580733,0.754637,0.870493,2.306218,1.117414,0.710088,0.755152,0.672672,0.967492,0.224699,0.223798,0.086178,1.404176,2.037405,0.300579,0.345274,0.340335,1.218639,5.307078,0.844495,0.411849,0.237932,2.832127,10.456725,1.585668,0.386810,0.213252,3.642268,5.190406,0.701554,0.972876,0.253549,14.122945,9.984027,0.966586,0.397368,0.210873
1676057943.493369,1676057943.494131,127.000000,0.000000,4280.000000,4267.179688,4314.615234,4299.102539,4284.615234,4260.128418,4243.333496,4284.487305,4262.948730,4243.333496,4464.358887,4483.333496,4343.205078,4381.666504,94.000000,4.000000,94.000000,,,,0.000000,4.000000,4.000000,4.000000,4.000000,4.000000,4.000000,4.000000,4.000000,4.000000,4.000000,4.000000,4.000000,4.000000,4.000000,100.000000,,,,,,,,,,,,,,,,,,,,,,,,,,,,,,,,,,,,,,,,,,,,,,,,,,,,,,,,,,,,,,,,,,,,,,,,,,,,,,,,,,,,,,
1676057943.501177,1676057943.501839,0.000000,0.000000,4281.282227,4275.897461,4315.128418,4308.589844,4299.230957,4279.743652,4272.820313,4266.153809,4257.307617,4232.948730,4461.282227,4476.153809,4348.333496,4383.205078,2234.000000,4.000000,94.000000,,,,0.000000,4.000000,4.000000,4.000000,4.000000,4.000000,4.000000,4.000000,4.000000,4.000000,4.000000,4.000000,4.000000,4.000000,4.000000,100.000000,,,,,,,,,,,,,,,,,,,,,,,,,,,,,,,,,,,,,,,,,,,,,,,,,,,,,,,,,,,,,,,,,,,,,,,,,,,,,,,,,,,,,,
1676057943.508985,1676057943.509648,1.000000,0.000000,4268.205078,4265.897461,4302.307617,4301.282227,4296.922852,4286.794922,4271.794922,4249.102539,4248.077148,4226.025879,4449.743652,4461.025879,4340.384766,4374.230957,2338.000000,4.000000,94.000000,,,,0.000000,4.000000,4.000000,4.000000,4.000000,4.000000,4.000000,4.000000,4.000000,4.000000,4.000000,4.000000,4.000000,4.000000,4.000000,100.000000,,,,,,,,,,,,,,,,,,,,,,,,,,,,,,,,,,,,,,,,,,,,,,,,,,,,,,,,,,,,,,,,,,,,,,,,,,,,,,,,,,,,,,
1676057943.516794,1676057943.517356,2.000000,0.000000,4262.436035,4255.384766,4291.666504,4292.436035,4292.179688,4289.102539,4254.487305,4231.538574,4243.589844,4216.922852,4441.538574,4443.846191,4332.307617,4365.000000,2371.000000,4.000000,94.000000,,,,0.000000,4.000000,4.000000,4.000000,4.000000,4.000000,4.000000,4.000000,4.000000,4.000000,4.000000,4.000000,4.000000,4.000000,4.000000,100.000000,,,,,,,,,,,,,,,,,,,,,,,,,,,,,,,,,,,,,,,,,,,,,,,,,,,,,,,,,,,,,,,,,,,,,,,,,,,,,,,,,,,,,,
1676057943.524602,1676057943.525165,3.000000,0.000000,4262.692383,4255.512695,4293.077148,4294.743652,4296.538574,4296.794922,4278.205078,4222.820313,4245.000000,4216.153809,4444.102539,4445.384766,4331.282227,4368.974121,2256.000000,4.000000,94.000000,,,,0.000000,4.000000,4.000000,4.000000,4.000000,4.000000,4.000000,4.000000,4.000000,4.000000,4.000000,4.000000,4.000000,4.000000,4.000000,100.000000,,,,,,,,,,,,,,,,,,,,,,,,,,,,,,,,,,,,,,,,,,,,,,,,,,,,,,,,,,,,,,,,,,,,,,,,,,,,,,,,,,,,,,
1676057943.532411,1676057943.532873,4.000000,0.000000,4261.282227,4253.846191,4296.794922,4295.384766,4287.436035,4300.769043,4308.974121,4229.487305,4252.692383,4229.743652,4446.538574,4456.666504,4329.743652,4374.102539,2296.000000,4.000000,94.000000,,,,0.000000,4.000000,4.000000,4.000000,4.000000,4.000000,4.000000,4.000000,4.000000,4.000000,4.000000,4.000000,4.000000,4.000000,4.000000,100.000000,,,,,,,,,,,,,,,,,,,,,,,,,,,,,,,,,,,,,,,,,,,,,,,,,,,,,,,,,,,,,,,,,,,,,,,,,,,,,,,,,,,,,,
1676057943.540219,1676057943.540682,5.000000,0.000000,4259.615234,4249.615234,4294.615234,4291.794922,4278.077148,4292.948730,4295.256348,4250.256348,4263.333496,4240.256348,4444.358887,4459.743652,4329.743652,4367.563965,2092.000000,4.000000,94.000000,,,,0.000000,4.000000,4.000000,4.000000,4.000000,4.000000,4.000000,4.000000,4.000000,4.000000,4.000000,4.000000,4.000000,4.000000,4.000000,100.000000,,,,,,,,,,,,,,,,,,,,,,,,,,,,,,,,,,,,,,,,,,,,,,,,,,,,,,,,,,,,,,,,,,,,,,,,,,,,,,,,,,,,,,
1676057943.548027,1676057943.548390,6.000000,0.000000,4252.051270,4246.538574,4285.384766,4289.358887,4281.538574,4281.794922,4273.717773,4281.025879,4272.307617,4233.461426,4440.128418,4455.256348,4326.410156,4358.974121,2256.000000,4.000000,94.000000,,,,0.000000,4.000000,4.000000,4.000000,4.000000,4.000000,4.000000,4.000000,4.000000,4.000000,4.000000,4.000000,4.000000,4.000000,4.000000,100.000000,,,,,,,,,,,,,,,,,,,,,,,,,,,,,,,,,,,,,,,,,,,,,,,,,,,,,,,,,,,,,,,,,,,,,,,,,,,,,,,,,,,,,,
1676057943.555836,1676057943.556299,7.000000,0.000000,4242.563965,4243.205078,4280.769043,4284.871582,4281.025879,4277.179688,4276.282227,4308.333496,4284.102539,4228.717773,4440.384766,4455.000000,4319.358887,4357.692383,2414.000000,4.000000,94.000000,,,,0.000000,4.000000,4.000000,4.000000,4.000000,4.000000,4.000000,4.000000,4.000000,4.000000,4.000000,4.000000,4.000000,4.000000,4.000000,100.000000,,,,,,,,,,,,,,,,,,,,,,,,,,,,,,,,,,,,,,,,,,,,,,,,,,,,,,,,,,,,,,,,,,,,,,,,,,,,,,,,,,,,,,
1676057943.563644,1676057943.564107,8.000000,0.000000,4252.692383,4253.717773,4294.487305,4290.641113,4284.871582,4281.282227,4285.384766,4330.641113,4299.358887,4249.743652,4458.333496,4471.922852,4333.846191,4372.307617,2004.000000,4.000000,94.000000,,,,0.000000,4.000000,4.000000,4.000000,4.000000,4.000000,4.000000,4.000000,4.000000,4.000000,4.000000,4.000000,4.000000,4.000000,4.000000,100.000000,,,,,,,,,,,,,,,,,,,,,,,,,,,,,,,,,,,,,,,,,,,,,,,,,,,,,,,,,,,,,,,,,,,,,,,,,,,,,,,,,,,,,,
1676057943.571453,1676057943.572016,9.000000,0.000000,4273.077148,4268.461426,4308.717773,4304.871582,4297.692383,4283.333496,4280.897461,4340.000000,4301.282227,4272.179688,4477.179688,4492.051270,4353.846191,4388.461426,2167.000000,4.000000,94.000000,,,,0.000000,4.000000,4.000000,4.000000,4.000000,4.000000,4.000000,4.000000,4.000000,4.000000,4.000000,4.000000,4.000000,4.000000,4.000000,100.000000,,,,,,,,,,,,,,,,,,,,,,,,,,,,,,,,,,,,,,,,,,,,,,,,,,,,,,,,,,,,,,,,,,,,,,,,,,,,,,,,,,,,,,
1676057943.579261,1676057943.579824,10.000000,0.000000,4276.153809,4267.436035,4305.512695,4308.333496,4293.846191,4270.769043,4261.922852,4328.846191,4288.077148,4260.769043,4475.512695,4494.358887,4348.717773,4386.922852,2508.000000,4.000000,94.000000,,,,0.000000,4.000000,4.000000,4.000000,4.000000,4.000000,4.000000,4.000000,4.000000,4.000000,4.000000,4.000000,4.000000,4.000000,4.000000,100.000000,,,,,,,,,,,,,,,,,,,,,,,,,,,,,,,,,,,,,,,,,,,,,,,,,,,,,,,,,,,,,,,,,,,,,,,,,,,,,,,,,,,,,,
1676057943.587069,1676057943.587732,11.000000,0.000000,4277.692383,4266.410156,4307.820313,4309.871582,4279.358887,4260.512695,4259.615234,4313.077148,4280.897461,4244.358887,4474.358887,4491.922852,4345.512695,4388.461426,2850.000000,4.000000,94.000000,,,,0.000000,4.000000,4.000000,4.000000,4.000000,4.000000,4.000000,4.000000,4.000000,4.000000,4.000000,4.000000,4.000000,4.000000,4.000000,100.000000,,,,,,,,,,,,,,,,,,,,,,,,,,,,,,,,,,,,,,,,,,,,,,,,,,,,,,,,,,,,,,,,,,,,,,,,,,,,,,,,,,,,,,
1676057943.594878,1676057943.595541,12.000000,0.000000,4284.230957,4270.256348,4315.897461,4313.461426,4278.846191,4263.974121,4267.563965,4292.179688,4277.307617,4255.128418,4480.769043,4490.384766,4355.128418,4397.692383,2787.000000,4.000000,94.000000,,,,0.000000,4.000000,4.000000,4.000000,4.000000,4.000000,4.000000,4.000000,4.000000,4.000000,4.000000,4.000000,4.000000,4.000000,4.000000,100.000000,,,,,,,,,,,,,,,,,,,,,,,,,,,,,,,,,,,,,,,,,,,,,,,,,,,,,,,,,,,,,,,,,,,,,,,,,,,,,,,,,,,,,,
1676057943.602686,1676057943.603449,13.000000,0.000000,4281.666504,4267.692383,4311.666504,4308.205078,4279.871582,4262.436035,4251.025879,4271.538574,4267.820313,4262.563965,4477.051270,4484.743652,4356.666504,4395.128418,3416.000000,4.000000,94.000000,,,,0.000000,4.000000,4.000000,4.000000,4.000000,4.000000,4.000000,4.000000,4.000000,4.000000,4.000000,4.000000,4.000000,4.000000,4.000000,100.000000,,,,,,,,,,,,,,,,,,,,,,,,,,,,,,,,,,,,,,,,,,,,,,,,,,,,,,,,,,,,,,,,,,,,,,,,,,,,,,,,,,,,,,
1676057943.610495,1676057943.611258,14.000000,0.000000,4277.692383,4271.153809,4305.256348,4302.692383,4281.282227,4257.436035,4241.025879,4258.846191,4260.256348,4252.820313,4471.410156,4480.256348,4352.820313,4390.769043,2508.000000,4.000000,94.000000,,,,0.000000,4.000000,4.000000,4.000000,4.000000,4.000000,4.000000,4.000000,4.000000,4.000000,4.000000,4.000000,4.000000,4.000000,4.000000,100.000000,1.000000,58.333332,4.000000,3.000000,4.000000,4.000000,4.000000,4.000000,4.000000,3.000000,4.000000,4.000000,4.000000,4.000000,4.000000,1.000000,2.844932,13.566781,1.010204,0.273381,0.170064,1.307145,8.109687,0.604069,0.268966,0.141314,4.257306,10.585692,0.920399,0.377405,0.126709,2.114870,7.471125,0.570793,0.337795,0.123361,0.527541,1.299876,0.604072,0.377479,0.386432,0.271290,1.436707,0.384383,0.195024,0.154537,1.067916,4.257038,2.591805,0.676180,0.782405,1.346688,4.507247,1.320415,0.905802,0.778019,0.888957,1.375391,0.272513,0.265564,0.087674,1.496177,2.251705,0.378272,0.361232,0.367447,1.113511,7.201954,0.961412,0.499975,0.234563,3.053264,14.535700,1.682013,0.465778,0.200335,3.049159,7.300311,0.806620,1.107033,0.267326,5.424137,13.265437,1.001306,0.412998,0.189296
1676057943.618303,1676057943.619166,15.000000,0.000000,4285.384766,4282.948730,4311.025879,4309.871582,4295.384766,4272.563965,4274.230957,4249.743652,4261.153809,4256.922852,4477.051270,4482.051270,4355.769043,4400.641113,2850.000000,4.000000,94.000000,,,,0.000000,4.000000,4.000000,4.000000,4.000000,4.000000,4.000000,4.000000,4.000000,4.000000,4.000000,4.000000,4.000000,4.000000,4.000000,100.000000,,,,,,,,,,,,,,,,,,,,,,,,,,,,,,,,,,,,,,,,,,,,,,,,,,,,,,,,,,,,,,,,,,,,,,,,,,,,,,,,,,,,,,
1676057943.626111,1676057943.626974,16.000000,0.000000,4285.512695,4277.436035,4315.512695,4314.230957,4302.563965,4288.974121,4299.358887,4245.256348,4262.820313,4269.615234,4474.102539,4477.820313,4356.666504,4400.384766,0.000000,4.000000,94.000000,,,,0.000000,4.000000,4.000000,4.000000,4.000000,4.000000,4.000000,4.000000,4.000000,4.000000,4.000000,4.000000,4.000000,4.000000,4.000000,100.000000,,,,,,,,,,,,,,,,,,,,,,,,,,,,,,,,,,,,,,,,,,,,,,,,,,,,,,,,,,,,,,,,,,,,,,,,,,,,,,,,,,,,,,
1676057943.633920,1676057943.634683,17.000000,0.000000,4263.717773,4257.820313,4299.871582,4300.641113,4287.563965,4287.179688,4292.436035,4257.307617,4260.384766,4260.256348,4461.538574,4466.666504,4347.179688,4378.974121,0.000000,4.000000,94.000000,,,,0.000000,4.000000,4.000000,4.000000,4.000000,4.000000,4.000000,4.000000,4.000000,4.000000,4.000000,4.000000,4.000000,4.000000,4.000000,100.000000,,,,,,,,,,,,,,,,,,,,,,,,,,,,,,,,,,,,,,,,,,,,,,,,,,,,,,,,,,,,,,,,,,,,,,,,,,,,,,,,,,,,,,
1676057943.641728,1676057943.642491,18.000000,0.000000,4246.794922,4245.769043,4280.641113,4282.307617,4275.384766,4291.922852,4297.692383,4280.128418,4261.794922,4245.512695,4456.666504,4460.256348,4332.692383,4362.436035,0.000000,4.000000,94.000000,,,,0.000000,4.000000,4.000000,4.000000,4.000000,4.000000,4.000000,4.000000,4.000000,4.000000,4.000000,4.000000,4.000000,4.000000,4.000000,100.000000,,,,,,,,,,,,,,,,,,,,,,,,,,,,,,,,,,,,,,,,,,,,,,,,,,,,,,,,,,,,,,,,,,,,,,,,,,,,,,,,,,,,,,
1676057943.649537,1676057943.650200,19.000000,0.000000,4242.307617,4237.563965,4275.641113,4274.358887,4280.256348,4298.589844,4304.871582,4286.025879,4266.922852,4248.974121,4450.128418,4452.179688,4324.358887,4357.563965,0.000000,4.000000,94.000000,,,,0.000000,4.000000,4.000000,4.000000,4.000000,4.000000,4.000000,4.000000,4.000000,4.000000,4.000000,4.000000,4.000000,4.000000,4.000000,100.000000,,,,,,,,,,,,,,,,,,,,,,,,,,,,,,,,,,,,,,,,,,,,,,,,,,,,,,,,,,,,,,,,,,,,,,,,,,,,,,,,,,,,,,
1676057943.657345,1676057943.658008,20.000000,0.000000,4239.230957,4231.410156,4278.333496,4276.666504,4287.051270,4291.794922,4294.615234,4294.743652,4277.436035,4259.871582,4444.615234,4447.948730,4324.615234,4355.512695,0.000000,4.000000,94.000000,,,,0.000000,4.000000,4.000000,4.000000,4.000000,4.000000,4.000000,4.000000,4.000000,4.000000,4.000000,4.000000,4.000000,4.000000,4.000000,100.000000,,,,,,,,,,,,,,,,,,,,,,,,,,,,,,,,,,,,,,,,,,,,,,,,,,,,,,,,,,,,,,,,,,,,,,,,,,,,,,,,,,,,,,
1676057943.665153,1676057943.665717,21.000000,0.000000,4236.794922,4230.128418,4275.769043,4277.436035,4282.179688,4278.205078,4280.384766,4321.025879,4283.589844,4257.820313,4453.205078,4454.615234,4323.333496,4356.666504,0.000000,4.000000,94.000000,,,,0.000000,4.000000,4.000000,4.000000,4.000000,4.000000,4.000000,4.000000,4.000000,4.000000,4.000000,4.000000,4.000000,4.000000,4.000000,100.000000,,,,,,,,,,,,,,,,,,,,,,,,,,,,,,,,,,,,,,,,,,,,,,,,,,,,,,,,,,,,,,,,,,,,,,,,,,,,,,,,,,,,,,
1676057943.672962,1676057943.673525,22.000000,0.000000,4243.846191,4230.769043,4276.282227,4273.717773,4267.820313,4268.846191,4270.256348,4323.205078,4278.974121,4256.922852,4459.743652,4462.436035,4322.179688,4362.307617,0.000000,4.000000,94.000000,,,,0.000000,4.000000,4.000000,4.000000,4.000000,4.000000,4.000000,4.000000,4.000000,4.000000,4.000000,4.000000,4.000000,4.000000,4.000000,100.000000,,,,,,,,,,,,,,,,,,,,,,,,,,,,,,,,,,,,,,,,,,,,,,,,,,,,,,,,,,,,,,,,,,,,,,,,,,,,,,,,,,,,,,
1676057943.680770,1676057943.681234,23.000000,0.000000,4255.000000,4234.358887,4282.563965,4275.769043,4263.974121,4267.563965,4265.384766,4285.384766,4275.000000,4262.563965,4450.512695,4460.384766,4325.769043,4368.205078,0.000000,4.000000,94.000000,,,,0.000000,4.000000,4.000000,4.000000,4.000000,4.000000,4.000000,4.000000,4.000000,4.000000,4.000000,4.000000,4.000000,4.000000,4.000000,100.000000,,,,,,,,,,,,,,,,,,,,,,,,,,,,,,,,,,,,,,,,,,,,,,,,,,,,,,,,,,,,,,,,,,,,,,,,,,,,,,,,,,,,,,
1676057943.688579,1676057943.689042,24.000000,0.000000,4262.563965,4242.948730,4290.128418,4285.897461,4273.717773,4264.102539,4255.256348,4257.692383,4275.641113,4255.256348,4449.743652,4458.205078,4331.282227,4378.461426,0.000000,4.000000,94.000000,,,,0.000000,4.000000,4.000000,4.000000,4.000000,4.000000,4.000000,4.000000,4.000000,4.000000,4.000000,4.000000,4.000000,4.000000,4.000000,100.000000,,,,,,,,,,,,,,,,,,,,,,,,,,,,,,,,,,,,,,,,,,,,,,,,,,,,,,,,,,,,,,,,,,,,,,,,,,,,,,,,,,,,,,
1676057943.696387,1676057943.696751,25.000000,0.000000,4277.307617,4255.897461,4305.769043,4298.461426,4277.948730,4251.922852,4239.358887,4268.205078,4278.077148,4251.666504,4467.179688,4472.051270,4345.256348,4395.128418,0.000000,4.000000,94.000000,,,,0.000000,4.000000,4.000000,4.000000,4.000000,4.000000,4.000000,4.000000,4.000000,4.000000,4.000000,4.000000,4.000000,4.000000,4.000000,100.000000,,,,,,,,,,,,,,,,,,,,,,,,,,,,,,,,,,,,,,,,,,,,,,,,,,,,,,,,,,,,,,,,,,,,,,,,,,,,,,,,,,,,,,
1676057943.704195,1676057943.704559,26.000000,0.000000,4294.871582,4273.205078,4317.307617,4309.102539,4275.384766,4244.615234,4230.641113,4272.948730,4281.025879,4271.922852,4479.615234,4490.512695,4363.846191,4408.717773,0.000000,4.000000,94.000000,,,,0.000000,4.000000,4.000000,4.000000,4.000000,4.000000,4.000000,4.000000,4.000000,4.000000,4.000000,4.000000,4.000000,4.000000,4.000000,100.000000,,,,,,,,,,,,,,,,,,,,,,,,,,,,,,,,,,,,,,,,,,,,,,,,,,,,,,,,,,,,,,,,,,,,,,,,,,,,,,,,,,,,,,
1676057943.712004,1676057943.712268,27.000000,0.000000,4300.641113,4281.794922,4316.025879,4314.358887,4281.794922,4248.461426,4230.641113,4250.384766,4278.205078,4288.846191,4478.333496,4488.974121,4367.563965,4410.384766,0.000000,4.000000,94.000000,,,,0.000000,4.000000,4.000000,4.000000,4.000000,4.000000,4.000000,4.000000,4.000000,4.000000,4.000000,4.000000,4.000000,4.000000,4.000000,100.000000,,,,,,,,,,,,,,,,,,,,,,,,,,,,,,,,,,,,,,,,,,,,,,,,,,,,,,,,,,,,,,,,,,,,,,,,,,,,,,,,,,,,,,
1676057943.719812,1676057943.720176,28.000000,0.000000,4296.410156,4271.410156,4311.666504,4312.436035,4289.743652,4248.589844,4226.794922,4241.410156,4267.563965,4279.358887,4473.333496,4477.563965,4357.051270,4403.717773,0.000000,4.000000,94.000000,,,,0.000000,4.000000,4.000000,4.000000,4.000000,4.000000,4.000000,4.000000,4.000000,4.000000,4.000000,4.000000,4.000000,4.000000,4.000000,100.000000,,,,,,,,,,,,,,,,,,,,,,,,,,,,,,,,,,,,,,,,,,,,,,,,,,,,,,,,,,,,,,,,,,,,,,,,,,,,,,,,,,,,,,
1676057943.727621,1676057943.727985,29.000000,0.000000,4293.461426,4264.230957,4314.102539,4311.666504,4288.974121,4250.256348,4239.230957,4263.589844,4261.410156,4281.666504,4477.436035,4484.230957,4350.000000,4403.333496,0.000000,4.000000,94.000000,,,,0.000000,4.000000,4.000000,4.000000,4.000000,4.000000,4.000000,4.000000,4.000000,4.000000,4.000000,4.000000,4.000000,4.000000,4.000000,100.000000,,,,,,,,,,,,,,,,,,,,,,,,,,,,,,,,,,,,,,,,,,,,,,,,,,,,,,,,,,,,,,,,,,,,,,,,,,,,,,,,,,,,,,
1676057943.735429,1676057943.735793,30.000000,0.000000,4291.025879,4266.025879,4315.256348,4312.307617,4286.794922,4267.051270,4275.512695,4274.743652,4264.230957,4297.307617,4479.487305,4489.102539,4346.794922,4404.615234,0.000000,4.000000,94.000000,,,,0.000000,4.000000,4.000000,4.000000,4.000000,4.000000,4.000000,4.000000,4.000000,4.000000,4.000000,4.000000,4.000000,4.000000,4.000000,100.000000,,,,,,,,,,,,,,,,,3.059729,18.127979,1.039008,0.289775,0.175227,1.479236,10.682817,0.649120,0.290783,0.153150,4.279314,13.943689,0.860689,0.396440,0.138055,2.091861,9.539157,0.534093,0.314669,0.142063,0.567956,1.731268,0.641826,0.368317,0.327494,0.325433,2.010897,0.371976,0.186134,0.156435,1.054449,5.855935,2.999139,0.763695,0.806511,1.944315,9.346582,1.534498,1.210984,0.802488,1.176961,2.002342,0.329932,0.318055,0.097256,1.655740,2.326171,0.533851,0.373169,0.390765,1.119250,8.868576,0.989249,0.569362,0.231691,3.239342,18.187527,1.624165,0.548593,0.208303,2.562557,9.240230,0.835608,1.129798,0.269524,3.041501,16.878155,1.024966,0.449599,0.182806
1676057943.743237,1676057943.743502,31.000000,0.000000,4273.717773,4253.589844,4301.922852,4300.897461,4282.307617,4286.153809,4297.307617,4248.974121,4262.563965,4281.153809,4465.641113,4466.666504,4334.871582,4387.179688,0.000000,4.000000,94.000000,,,,0.000000,4.000000,4.000000,4.000000,4.000000,4.000000,4.000000,4.000000,4.000000,4.000000,4.000000,4.000000,4.000000,4.000000,4.000000,100.000000,,,,,,,,,,,,,,,,,,,,,,,,,,,,,,,,,,,,,,,,,,,,,,,,,,,,,,,,,,,,,,,,,,,,,,,,,,,,,,,,,,,,,,
1676057943.751046,1676057943.751410,32.000000,0.000000,4249.358887,4235.256348,4283.717773,4284.230957,4279.615234,4299.102539,4307.948730,4243.846191,4265.512695,4262.692383,4450.128418,4445.769043,4323.846191,4364.743652,0.000000,4.000000,94.000000,,,,0.000000,4.000000,4.000000,4.000000,4.000000,4.000000,4.000000,4.000000,4.000000,4.000000,4.000000,4.000000,4.000000,4.000000,4.000000,100.000000,,,,,,,,,,,,,,,,,,,,,,,,,,,,,,,,,,,,,,,,,,,,,,,,,,,,,,,,,,,,,,,,,,,,,,,,,,,,,,,,,,,,,,
1676057943.758854,1676057943.759219,33.000000,0.000000,4232.563965,4225.384766,4272.436035,4274.102539,4282.179688,4302.563965,4320.128418,4283.846191,4283.333496,4267.051270,4445.256348,4446.538574,4318.717773,4357.436035,0.000000,4.000000,94.000000,,,,0.000000,4.000000,4.000000,4.000000,4.000000,4.000000,4.000000,4.000000,4.000000,4.000000,4.000000,4.000000,4.000000,4.000000,4.000000,100.000000,,,,,,,,,,,,,,,,,,,,,,,,,,,,,,,,,,,,,,,,,,,,,,,,,,,,,,,,,,,,,,,,,,,,,,,,,,,,,,,,,,,,,,
1676057943.766663,1676057943.767127,34.000000,0.000000,4222.051270,4218.205078,4265.897461,4265.897461,4280.769043,4300.128418,4317.820313,4312.179688,4297.948730,4267.820313,4443.717773,4442.179688,4308.205078,4349.487305,0.000000,4.000000,94.000000,,,,0.000000,4.000000,4.000000,4.000000,4.000000,4.000000,4.000000,4.000000,4.000000,4.000000,4.000000,4.000000,4.000000,4.000000,4.000000,100.000000,,,,,,,,,,,,,,,,,,,,,,,,,,,,,,,,,,,,,,,,,,,,,,,,,,,,,,,,,,,,,,,,,,,,,,,,,,,,,,,,,,,,,,
1676057943.774471,1676057943.774935,35.000000,0.000000,4213.333496,4211.922852,4259.615234,4257.563965,4277.692383,4295.641113,4304.230957,4320.384766,4300.384766,4266.410156,4444.358887,4435.512695,4300.897461,4341.666504,0.000000,4.000000,94.000000,,,,0.000000,4.000000,4.000000,4.000000,4.000000,4.000000,4.000000,4.000000,4.000000,4.000000,4.000000,4.000000,4.000000,4.000000,4.000000,100.000000,,,,,,,,,,,,,,,,,,,,,,,,,,,,,,,,,,,,,,,,,,,,,,,,,,,,,,,,,,,,,,,,,,,,,,,,,,,,,,,,,,,,,,
1676057943.782279,1676057943.782844,36.000000,0.000000,4215.897461,4212.692383,4257.563965,4255.512695,4278.589844,4291.153809,4286.282227,4305.256348,4296.282227,4277.692383,4445.641113,4436.410156,4306.922852,4343.846191,0.000000,4.000000,94.000000,,,,0.000000,4.000000,4.000000,4.000000,4.000000,4.000000,4.000000,4.000000,4.000000,4.000000,4.000000,4.000000,4.000000,4.000000,4.000000,100.000000,,,,,,,,,,,,,,,,,,,,,,,,,,,,,,,,,,,,,,,,,,,,,,,,,,,,,,,,,,,,,,,,,,,,,,,,,,,,,,,,,,,,,,
1676057943.790088,1676057943.790652,37.000000,0.000000,4234.358887,4219.358887,4266.538574,4263.846191,4279.102539,4289.615234,4277.179688,4290.512695,4291.153809,4277.179688,4448.461426,4442.051270,4318.461426,4355.384766,0.000000,4.000000,94.000000,,,,0.000000,4.000000,4.000000,4.000000,4.000000,4.000000,4.000000,4.000000,4.000000,4.000000,4.000000,4.000000,4.000000,4.000000,4.000000,100.000000,,,,,,,,,,,,,,,,,,,,,,,,,,,,,,,,,,,,,,,,,,,,,,,,,,,,,,,,,,,,,,,,,,,,,,,,,,,,,,,,,,,,,,
1676057943.797896,1676057943.798560,38.000000,0.000000,4248.974121,4231.922852,4280.384766,4277.563965,4278.077148,4288.077148,4280.641113,4309.743652,4291.410156,4270.128418,4460.384766,4454.743652,4327.948730,4369.743652,0.000000,4.000000,94.000000,,,,0.000000,4.000000,4.000000,4.000000,4.000000,4.000000,4.000000,4.000000,4.000000,4.000000,4.000000,4.000000,4.000000,4.000000,4.000000,100.000000,,,,,,,,,,,,,,,,,,,,,,,,,,,,,,,,,,,,,,,,,,,,,,,,,,,,,,,,,,,,,,,,,,,,,,,,,,,,,,,,,,,,,,
1676057943.805705,1676057943.806369,39.000000,0.000000,4249.743652,4242.179688,4284.487305,4282.692383,4277.820313,4281.410156,4272.820313,4294.743652,4289.230957,4287.179688,4463.846191,4452.179688,4337.307617,4370.641113,0.000000,4.000000,94.000000,,,,0.000000,4.000000,4.000000,4.000000,4.000000,4.000000,4.000000,4.000000,4.000000,4.000000,4.000000,4.000000,4.000000,4.000000,4.000000,100.000000,,,,,,,,,,,,,,,,,,,,,,,,,,,,,,,,,,,,,,,,,,,,,,,,,,,,,,,,,,,,,,,,,,,,,,,,,,,,,,,,,,,,,,
1676057943.813513,1676057943.814277,40.000000,0.000000,4248.077148,4237.948730,4281.538574,4278.461426,4279.358887,4269.487305,4256.410156,4276.538574,4279.358887,4301.025879,4461.538574,4452.307617,4344.102539,4365.769043,0.000000,4.000000,94.000000,,,,0.000000,4.000000,4.000000,4.000000,4.000000,4.000000,4.000000,4.000000,4.000000,4.000000,4.000000,4.000000,4.000000,4.000000,4.000000,100.000000,,,,,,,,,,,,,,,,,,,,,,,,,,,,,,,,,,,,,,,,,,,,,,,,,,,,,,,,,,,,,,,,,,,,,,,,,,,,,,,,,,,,,,
1676057943.821321,1676057943.822086,41.000000,0.000000,4247.820313,4234.102539,4282.051270,4277.948730,4278.205078,4261.153809,4256.794922,4286.538574,4266.410156,4294.102539,4463.846191,4457.692383,4342.948730,4365.641113,0.000000,4.000000,94.000000,,,,0.000000,4.000000,4.000000,4.000000,4.000000,4.000000,4.000000,4.000000,4.000000,4.000000,4.000000,4.000000,4.000000,4.000000,4.000000,100.000000,,,,,,,,,,,,,,,,,,,,,,,,,,,,,,,,,,,,,,,,,,,,,,,,,,,,,,,,,,,,,,,,,,,,,,,,,,,,,,,,,,,,,,
1676057943.829130,1676057943.829794,42.000000,0.000000,4252.307617,4242.563965,4282.563965,4286.922852,4277.436035,4262.563965,4260.000000,4237.692383,4254.358887,4289.487305,4454.487305,4437.563965,4337.692383,4362.179688,0.000000,4.000000,94.000000,,,,0.000000,4.000000,4.000000,4.000000,4.000000,4.000000,4.000000,4.000000,4.000000,4.000000,4.000000,4.000000,4.000000,4.000000,4.000000,100.000000,,,,,,,,,,,,,,,,,,,,,,,,,,,,,,,,,,,,,,,,,,,,,,,,,,,,,,,,,,,,,,,,,,,,,,,,,,,,,,,,,,,,,,
1676057943.836938,1676057943.837603,43.000000,0.000000,4262.436035,4252.563965,4287.051270,4302.179688,4286.794922,4266.410156,4261.666504,4171.538574,4246.153809,4291.538574,4440.769043,4417.436035,4336.666504,4356.282227,0.000000,4.000000,94.000000,,,,0.000000,4.000000,4.000000,4.000000,4.000000,4.000000,4.000000,4.000000,4.000000,4.000000,4.000000,4.000000,4.000000,4.000000,4.000000,100.000000,,,,,,,,,,,,,,,,,,,,,,,,,,,,,,,,,,,,,,,,,,,,,,,,,,,,,,,,,,,,,,,,,,,,,,,,,,,,,,,,,,,,,,
1676057943.844747,1676057943.845311,44.000000,0.000000,4268.077148,4257.563965,4293.974121,4306.794922,4297.692383,4265.128418,4282.948730,4204.615234,4247.692383,4285.256348,4443.333496,4433.974121,4342.436035,4386.794922,0.000000,4.000000,94.000000,,,,0.000000,4.000000,4.000000,4.000000,4.000000,4.000000,4.000000,4.000000,4.000000,4.000000,4.000000,4.000000,4.000000,4.000000,4.000000,100.000000,,,,,,,,,,,,,,,,,,,,,,,,,,,,,,,,,,,,,,,,,,,,,,,,,,,,,,,,,,,,,,,,,,,,,,,,,,,,,,,,,,,,,,
1676057943.852555,1676057943.853120,45.000000,0.000000,4264.358887,4255.000000,4291.410156,4299.102539,4295.128418,4265.000000,4290.128418,4259.230957,4253.077148,4274.743652,4451.282227,4455.128418,4346.922852,4463.461426,0.000000,4.000000,94.000000,,,,0.000000,4.000000,4.000000,4.000000,4.000000,4.000000,4.000000,4.000000,4.000000,4.000000,4.000000,4.000000,4.000000,4.000000,4.000000,100.000000,,,,,,,,,,,,,,,,,,,,,,,,,,,,,,,,,,,,,,,,,,,,,,,,,,,,,,,,,,,,,,,,,,,,,,,,,,,,,,,,,,,,,,
1676057943.860363,1676057943.860828,46.000000,0.000000,4264.615234,4251.666504,4287.307617,4299.743652,4290.256348,4274.743652,4274.102539,4259.743652,4256.922852,4286.282227,4454.871582,4454.487305,4349.230957,4522.436035,0.000000,4.000000,94.000000,,,,0.000000,4.000000,4.000000,4.000000,4.000000,4.000000,4.000000,4.000000,4.000000,4.000000,4.000000,4.000000,4.000000,4.000000,4.000000,100.000000,,,,,,,,,,,,,,,,,3.306702,21.671362,1.036893,0.305115,0.183206,1.797739,12.589684,0.693379,0.306590,0.164305,4.023415,16.362179,0.784331,0.402019,0.152469,1.988522,10.977223,0.500548,0.280118,0.162159,0.598010,2.078357,0.650853,0.378523,0.283767,0.415567,2.573962,0.381243,0.183302,0.161318,1.025782,7.844021,3.291903,0.827054,0.842757,2.581430,17.769249,1.758744,1.612430,0.816478,1.503595,2.900893,0.388396,0.374882,0.110791,1.944190,2.279764,0.749471,0.385425,0.406164,1.283223,10.006586,0.914277,0.607396,0.231477,3.492851,20.697620,1.459917,0.630866,0.235673,2.343204,10.594577,0.781098,1.035690,0.262984,2.746407,19.571198,1.014096,0.488027,0.184935
1676057943.868172,1676057943.868737,47.000000,0.000000,4267.051270,4248.333496,4288.846191,4302.820313,4290.897461,4283.077148,4284.871582,4279.871582,4265.128418,4300.384766,4464.743652,4461.282227,4353.974121,4515.256348,0.000000,4.000000,94.000000,,,,0.000000,4.000000,4.000000,4.000000,4.000000,4.000000,4.000000,4.000000,4.000000,4.000000,4.000000,4.000000,4.000000,4.000000,4.000000,100.000000,,,,,,,,,,,,,,,,,,,,,,,,,,,,,,,,,,,,,,,,,,,,,,,,,,,,,,,,,,,,,,,,,,,,,,,,,,,,,,,,,,,,,,
1676057943.875980,1676057943.876545,48.000000,0.000000,4257.820313,4240.256348,4282.948730,4288.846191,4286.794922,4283.333496,4306.922852,4298.333496,4270.128418,4296.410156,4461.282227,4460.769043,4349.871582,4470.897461,0.000000,4.000000,94.000000,,,,0.000000,4.000000,4.000000,4.000000,4.000000,4.000000,4.000000,4.000000,4.000000,4.000000,4.000000,4.000000,4.000000,4.000000,4.000000,100.000000,,,,,,,,,,,,,,,,,,,,,,,,,,,,,,,,,,,,,,,,,,,,,,,,,,,,,,,,,,,,,,,,,,,,,,,,,,,,,,,,,,,,,,
1676057943.883789,1676057943.884453,49.000000,0.000000,4241.282227,4225.897461,4268.205078,4273.205078,4277.820313,4280.256348,4292.563965,4284.230957,4265.256348,4296.666504,4441.153809,4437.563965,4330.000000,4434.487305,0.000000,4.000000,94.000000,,,,0.000000,4.000000,4.000000,4.000000,4.000000,4.000000,4.000000,4.000000,4.000000,4.000000,4.000000,4.000000,4.000000,4.000000,4.000000,100.000000,,,,,,,,,,,,,,,,,,,,,,,,,,,,,,,,,,,,,,,,,,,,,,,,,,,,,,,,,,,,,,,,,,,,,,,,,,,,,,,,,,,,,,
1676057943.891597,1676057943.892262,50.000000,0.000000,4232.563965,4222.051270,4261.410156,4276.153809,4273.589844,4280.769043,4273.205078,4281.153809,4263.205078,4298.589844,4433.589844,4423.205078,4318.461426,4413.461426,0.000000,4.000000,94.000000,,,,0.000000,4.000000,4.000000,4.000000,4.000000,4.000000,4.000000,4.000000,4.000000,4.000000,4.000000,4.000000,4.000000,4.000000,4.000000,100.000000,,,,,,,,,,,,,,,,,,,,,,,,,,,,,,,,,,,,,,,,,,,,,,,,,,,,,,,,,,,,,,,,,,,,,,,,,,,,,,,,,,,,,,
1676057943.899405,1676057943.900170,51.000000,0.000000,4241.025879,4237.436035,4273.333496,4286.666504,4281.153809,4283.333496,4291.025879,4290.512695,4273.846191,4292.307617,4445.897461,4434.871582,4333.205078,4415.384766,0.000000,4.000000,94.000000,,,,0.000000,4.000000,4.000000,4.000000,4.000000,4.000000,4.000000,4.000000,4.000000,4.000000,4.000000,4.000000,4.000000,4.000000,4.000000,100.000000,,,,,,,,,,,,,,,,,,,,,,,,,,,,,,,,,,,,,,,,,,,,,,,,,,,,,,,,,,,,,,,,,,,,,,,,,,,,,,,,,,,,,,
1676057943.907214,1676057943.907979,52.000000,0.000000,4256.922852,4249.743652,4286.922852,4290.769043,4284.871582,4284.487305,4300.897461,4300.256348,4281.666504,4298.717773,4459.871582,4456.025879,4349.102539,4425.128418,0.000000,4.000000,94.000000,,,,0.000000,4.000000,4.000000,4.000000,4.000000,4.000000,4.000000,4.000000,4.000000,4.000000,4.000000,4.000000,4.000000,4.000000,4.000000,100.000000,,,,,,,,,,,,,,,,,,,,,,,,,,,,,,,,,,,,,,,,,,,,,,,,,,,,,,,,,,,,,,,,,,,,,,,,,,,,,,,,,,,,,,
1676057943.915022,1676057943.915787,53.000000,0.000000,4260.897461,4244.358887,4282.820313,4290.897461,4268.717773,4280.512695,4286.153809,4291.666504,4270.769043,4316.282227,4459.743652,4459.871582,4344.743652,4415.512695,0.000000,4.000000,94.000000,,,,0.000000,4.000000,4.000000,4.000000,4.000000,4.000000,4.000000,4.000000,4.000000,4.000000,4.000000,4.000000,4.000000,4.000000,4.000000,100.000000,,,,,,,,,,,,,,,,,,,,,,,,,,,,,,,,,,,,,,,,,,,,,,,,,,,,,,,,,,,,,,,,,,,,,,,,,,,,,,,,,,,,,,
1676057943.922831,1676057943.923496,54.000000,0.000000,4262.692383,4240.000000,4283.717773,4293.077148,4262.820313,4272.436035,4276.282227,4273.974121,4261.410156,4309.358887,4455.897461,4457.051270,4341.794922,4409.230957,0.000000,4.000000,94.000000,,,,0.000000,4.000000,4.000000,4.000000,4.000000,4.000000,4.000000,4.000000,4.000000,4.000000,4.000000,4.000000,4.000000,4.000000,4.000000,100.000000,,,,,,,,,,,,,,,,,,,,,,,,,,,,,,,,,,,,,,,,,,,,,,,,,,,,,,,,,,,,,,,,,,,,,,,,,,,,,,,,,,,,,,
1676057943.930639,1676057943.931404,55.000000,0.000000,4273.589844,4254.230957,4296.794922,4296.538574,4273.589844,4263.589844,4265.128418,4269.230957,4262.307617,4295.384766,4455.512695,4456.922852,4344.102539,4415.769043,0.000000,4.000000,94.000000,,,,0.000000,4.000000,4.000000,4.000000,4.000000,4.000000,4.000000,4.000000,4.000000,4.000000,4.000000,4.000000,4.000000,4.000000,4.000000,100.000000,,,,,,,,,,,,,,,,,,,,,,,,,,,,,,,,,,,,,,,,,,,,,,,,,,,,,,,,,,,,,,,,,,,,,,,,,,,,,,,,,,,,,,
1676057943.938447,1676057943.939212,56.000000,0.000000,4282.820313,4268.589844,4306.666504,4300.384766,4273.461426,4255.000000,4259.230957,4278.717773,4265.897461,4307.820313,4458.077148,4463.205078,4342.051270,4415.769043,0.000000,4.000000,94.000000,,,,0.000000,4.000000,4.000000,4.000000,4.000000,4.000000,4.000000,4.000000,4.000000,4.000000,4.000000,4.000000,4.000000,4.000000,4.000000,100.000000,,,,,,,,,,,,,,,,,,,,,,,,,,,,,,,,,,,,,,,,,,,,,,,,,,,,,,,,,,,,,,,,,,,,,,,,,,,,,,,,,,,,,,
1676057943.946256,1676057943.947121,57.000000,0.000000,4283.461426,4265.769043,4310.128418,4302.692383,4265.128418,4247.051270,4260.256348,4284.358887,4270.641113,4317.051270,4460.641113,4474.615234,4342.563965,4415.256348,0.000000,4.000000,94.000000,,,,0.000000,4.000000,4.000000,4.000000,4.000000,4.000000,4.000000,4.000000,4.000000,4.000000,4.000000,4.000000,4.000000,4.000000,4.000000,100.000000,,,,,,,,,,,,,,,,,,,,,,,,,,,,,,,,,,,,,,,,,,,,,,,,,,,,,,,,,,,,,,,,,,,,,,,,,,,,,,,,,,,,,,
1676057943.954064,1676057943.954929,58.000000,0.000000,4280.897461,4262.948730,4305.384766,4299.871582,4265.256348,4246.282227,4247.948730,4267.051270,4269.102539,4307.051270,4456.025879,4467.179688,4338.205078,4415.384766,0.000000,4.000000,94.000000,,,,0.000000,4.000000,4.000000,4.000000,4.000000,4.000000,4.000000,4.000000,4.000000,4.000000,4.000000,4.000000,4.000000,4.000000,4.000000,100.000000,,,,,,,,,,,,,,,,,,,,,,,,,,,,,,,,,,,,,,,,,,,,,,,,,,,,,,,,,,,,,,,,,,,,,,,,,,,,,,,,,,,,,,
1676057943.961873,1676057943.962838,59.000000,0.000000,4280.641113,4265.769043,4299.487305,4297.179688,4270.897461,4255.000000,4247.051270,4257.051270,4265.512695,4302.692383,4454.358887,4456.538574,4329.230957,4406.282227,0.000000,4.000000,94.000000,,,,0.000000,4.000000,4.000000,4.000000,4.000000,4.000000,4.000000,4.000000,4.000000,4.000000,4.000000,4.000000,4.000000,4.000000,4.000000,100.000000,,,,,,,,,,,,,,,,,,,,,,,,,,,,,,,,,,,,,,,,,,,,,,,,,,,,,,,,,,,,,,,,,,,,,,,,,,,,,,,,,,,,,,
1676057943.969681,1676057943.970646,60.000000,0.000000,4281.922852,4261.025879,4301.794922,4299.230957,4276.922852,4263.461426,4271.153809,4279.487305,4276.666504,4311.922852,4462.563965,4470.256348,4332.179688,4402.307617,0.000000,4.000000,94.000000,,,,0.000000,4.000000,4.000000,4.000000,4.000000,4.000000,4.000000,4.000000,4.000000,4.000000,4.000000,4.000000,4.000000,4.000000,4.000000,100.000000,,,,,,,,,,,,,,,,,,,,,,,,,,,,,,,,,,,,,,,,,,,,,,,,,,,,,,,,,,,,,,,,,,,,,,,,,,,,,,,,,,,,,,
1676057943.977489,1676057943.978554,61.000000,0.000000,4271.538574,4252.051270,4299.871582,4293.974121,4273.461426,4264.102539,4283.846191,4291.922852,4280.769043,4313.461426,4458.717773,4472.563965,4332.948730,4394.743652,0.000000,4.000000,94.000000,,,,0.000000,4.000000,4.000000,4.000000,4.000000,4.000000,4.000000,4.000000,4.000000,4.000000,4.000000,4.000000,4.000000,4.000000,4.000000,100.000000,,,,,,,,,,,,,,,,,,,,,,,,,,,,,,,,,,,,,,,,,,,,,,,,,,,,,,,,,,,,,,,,,,,,,,,,,,,,,,,,,,,,,,
1676057943.985298,1676057943.986363,62.000000,0.000000,4251.282227,4243.717773,4281.410156,4279.743652,4259.743652,4265.512695,4287.179688,4287.436035,4270.769043,4303.205078,4440.000000,4445.897461,4311.153809,4370.000000,0.000000,4.000000,94.000000,,,,0.000000,4.000000,4.000000,4.000000,4.000000,4.000000,4.000000,4.000000,4.000000,4.000000,4.000000,4.000000,4.000000,4.000000,4.000000,100.000000,,,,,,,,,,,,,,,,,3.697378,23.465824,1.020819,0.322465,0.196549,2.246951,13.437038,0.731586,0.315567,0.175297,3.684891,17.287275,0.730090,0.396404,0.168341,1.918935,11.494225,0.475951,0.245632,0.180650,0.618497,2.262281,0.629281,0.412700,0.257065,0.620348,3.152196,0.403246,0.193132,0.169719,1.128215,10.230025,3.450717,0.863096,0.901939,3.163280,29.610342,1.982885,2.048155,0.817566,1.817727,4.092532,0.439433,0.426814,0.123329,2.404641,2.170474,0.993547,0.409529,0.416653,1.623961,10.480813,0.762559,0.610888,0.234549,3.926927,21.671114,1.263944,0.701788,0.275677,2.436537,11.146774,0.661283,0.860244,0.252142,3.061346,20.553522,1.035296,0.523196,0.191579
1676057943.993106,1676057943.994271,63.000000,0.000000,4241.025879,4235.769043,4265.000000,4272.948730,4262.307617,4274.615234,4296.282227,4293.589844,4272.820313,4292.051270,4430.256348,4429.358887,4292.563965,4352.307617,0.000000,4.000000,94.000000,,,,0.000000,4.000000,4.000000,4.000000,4.000000,4.000000,4.000000,4.000000,4.000000,4.000000,4.000000,4.000000,4.000000,4.000000,4.000000,100.000000,,,,,,,,,,,,,,,,,,,,,,,,,,,,,,,,,,,,,,,,,,,,,,,,,,,,,,,,,,,,,,,,,,,,,,,,,,,,,,,,,,,,,,
1676057944.000915,1676057944.002080,64.000000,0.000000,4238.205078,4230.384766,4262.436035,4274.615234,4270.256348,4281.666504,4295.384766,4291.666504,4275.641113,4289.487305,4430.897461,4430.641113,4292.820313,4351.922852,2239.000000,4.000000,94.000000,,,,0.000000,4.000000,4.000000,4.000000,4.000000,4.000000,4.000000,4.000000,4.000000,4.000000,4.000000,4.000000,4.000000,4.000000,4.000000,100.000000,,,,,,,,,,,,,,,,,,,,,,,,,,,,,,,,,,,,,,,,,,,,,,,,,,,,,,,,,,,,,,,,,,,,,,,,,,,,,,,,,,,,,,
1676057944.008723,1676057944.009788,65.000000,0.000000,4231.538574,4229.615234,4264.102539,4274.871582,4265.897461,4281.153809,4295.000000,4284.230957,4269.230957,4293.974121,4429.102539,4427.948730,4293.333496,4348.717773,2336.000000,4.000000,94.000000,,,,0.000000,4.000000,4.000000,4.000000,4.000000,4.000000,4.000000,4.000000,4.000000,4.000000,4.000000,4.000000,4.000000,4.000000,4.000000,100.000000,,,,,,,,,,,,,,,,,,,,,,,,,,,,,,,,,,,,,,,,,,,,,,,,,,,,,,,,,,,,,,,,,,,,,,,,,,,,,,,,,,,,,,
1676057944.016531,1676057944.017597,66.000000,0.000000,4236.025879,4234.487305,4266.410156,4273.333496,4271.666504,4285.769043,4302.563965,4289.230957,4269.487305,4293.846191,4426.025879,4424.358887,4294.743652,4343.077148,2378.000000,4.000000,94.000000,,,,0.000000,4.000000,4.000000,4.000000,4.000000,4.000000,4.000000,4.000000,4.000000,4.000000,4.000000,4.000000,4.000000,4.000000,4.000000,100.000000,,,,,,,,,,,,,,,,,,,,,,,,,,,,,,,,,,,,,,,,,,,,,,,,,,,,,,,,,,,,,,,,,,,,,,,,,,,,,,,,,,,,,,
1676057944.024340,1676057944.025305,67.000000,0.000000,4254.487305,4244.743652,4273.461426,4278.333496,4282.948730,4292.820313,4297.692383,4291.666504,4268.589844,4290.641113,4429.871582,4430.000000,4304.487305,4353.077148,2262.000000,4.000000,94.000000,,,,0.000000,4.000000,4.000000,4.000000,4.000000,4.000000,4.000000,4.000000,4.000000,4.000000,4.000000,4.000000,4.000000,4.000000,4.000000,100.000000,,,,,,,,,,,,,,,,,,,,,,,,,,,,,,,,,,,,,,,,,,,,,,,,,,,,,,,,,,,,,,,,,,,,,,,,,,,,,,,,,,,,,,
1676057944.032148,1676057944.033114,68.000000,0.000000,4265.769043,4259.230957,4285.128418,4291.538574,4283.589844,4292.051270,4289.102539,4284.358887,4262.179688,4297.051270,4441.794922,4443.461426,4316.153809,4369.871582,2277.000000,4.000000,94.000000,,,,0.000000,4.000000,4.000000,4.000000,4.000000,4.000000,4.000000,4.000000,4.000000,4.000000,4.000000,4.000000,4.000000,4.000000,4.000000,100.000000,,,,,,,,,,,,,,,,,,,,,,,,,,,,,,,,,,,,,,,,,,,,,,,,,,,,,,,,,,,,,,,,,,,,,,,,,,,,,,,,,,,,,,
1676057944.039957,1676057944.040822,69.000000,0.000000,4267.692383,4267.563965,4290.641113,4297.436035,4282.692383,4287.051270,4279.487305,4261.794922,4261.025879,4305.641113,4447.948730,4446.153809,4323.461426,4374.871582,2102.000000,4.000000,94.000000,,,,0.000000,4.000000,4.000000,4.000000,4.000000,4.000000,4.000000,4.000000,4.000000,4.000000,4.000000,4.000000,4.000000,4.000000,4.000000,100.000000,,,,,,,,,,,,,,,,,,,,,,,,,,,,,,,,,,,,,,,,,,,,,,,,,,,,,,,,,,,,,,,,,,,,,,,,,,,,,,,,,,,,,,
1676057944.047765,1676057944.048631,70.000000,0.000000,4273.077148,4266.922852,4291.153809,4293.461426,4283.717773,4282.820313,4259.102539,4228.461426,4259.487305,4302.692383,4444.487305,4435.000000,4326.025879,4372.692383,2277.000000,4.000000,94.000000,,,,0.000000,4.000000,4.000000,4.000000,4.000000,4.000000,4.000000,4.000000,4.000000,4.000000,4.000000,4.000000,4.000000,4.000000,4.000000,100.000000,,,,,,,,,,,,,,,,,,,,,,,,,,,,,,,,,,,,,,,,,,,,,,,,,,,,,,,,,,,,,,,,,,,,,,,,,,,,,,,,,,,,,,
1676057944.055573,1676057944.056339,71.000000,0.000000,4282.563965,4266.922852,4297.179688,4295.769043,4280.769043,4272.692383,4247.307617,4228.846191,4259.615234,4300.256348,4449.358887,4441.025879,4328.717773,4377.307617,2441.000000,4.000000,94.000000,,,,0.000000,4.000000,4.000000,4.000000,4.000000,4.000000,4.000000,4.000000,4.000000,4.000000,4.000000,4.000000,4.000000,4.000000,4.000000,100.000000,,,,,,,,,,,,,,,,,,,,,,,,,,,,,,,,,,,,,,,,,,,,,,,,,,,,,,,,,,,,,,,,,,,,,,,,,,,,,,,,,,,,,,
1676057944.063382,1676057944.064148,72.000000,0.000000,4282.820313,4265.384766,4301.922852,4297.948730,4276.025879,4264.615234,4257.820313,4266.538574,4272.179688,4308.589844,4461.922852,4465.256348,4331.666504,4386.025879,2017.000000,4.000000,94.000000,,,,0.000000,4.000000,4.000000,4.000000,4.000000,4.000000,4.000000,4.000000,4.000000,4.000000,4.000000,4.000000,4.000000,4.000000,4.000000,100.000000,,,,,,,,,,,,,,,,,,,,,,,,,,,,,,,,,,,,,,,,,,,,,,,,,,,,,,,,,,,,,,,,,,,,,,,,,,,,,,,,,,,,,,
1676057944.071190,1676057944.071856,73.000000,0.000000,4268.077148,4258.461426,4297.179688,4289.358887,4269.743652,4263.461426,4274.102539,4298.589844,4287.051270,4313.461426,4466.794922,4478.205078,4331.666504,4385.384766,2155.000000,4.000000,94.000000,,,,0.000000,4.000000,4.000000,4.000000,4.000000,4.000000,4.000000,4.000000,4.000000,4.000000,4.000000,4.000000,4.000000,4.000000,4.000000,100.000000,,,,,,,,,,,,,,,,,,,,,,,,,,,,,,,,,,,,,,,,,,,,,,,,,,,,,,,,,,,,,,,,,,,,,,,,,,,,,,,,,,,,,,
1676057944.078999,1676057944.079665,74.000000,0.000000,4253.461426,4246.410156,4284.230957,4279.487305,4263.333496,4263.846191,4283.974121,4319.743652,4293.974121,4311.153809,4461.794922,4474.230957,4325.384766,4373.589844,2515.000000,4.000000,94.000000,,,,0.000000,4.000000,4.000000,4.000000,4.000000,4.000000,4.000000,4.000000,4.000000,4.000000,4.000000,4.000000,4.000000,4.000000,4.000000,100.000000,,,,,,,,,,,,,,,,,,,,,,,,,,,,,,,,,,,,,,,,,,,,,,,,,,,,,,,,,,,,,,,,,,,,,,,,,,,,,,,,,,,,,,
1676057944.086807,1676057944.087373,75.000000,0.000000,4243.974121,4234.487305,4269.871582,4270.128418,4262.820313,4268.717773,4294.230957,4321.282227,4288.589844,4310.256348,4449.102539,4454.487305,4312.948730,4352.948730,2859.000000,4.000000,94.000000,,,,0.000000,4.000000,4.000000,4.000000,4.000000,4.000000,4.000000,4.000000,4.000000,4.000000,4.000000,4.000000,4.000000,4.000000,4.000000,100.000000,,,,,,,,,,,,,,,,,,,,,,,,,,,,,,,,,,,,,,,,,,,,,,,,,,,,,,,,,,,,,,,,,,,,,,,,,,,,,,,,,,,,,,
1676057944.094615,1676057944.095182,76.000000,0.000000,4235.384766,4228.461426,4261.410156,4261.922852,4262.692383,4277.692383,4297.948730,4301.666504,4281.410156,4306.794922,4434.743652,4431.153809,4299.230957,4335.512695,2797.000000,4.000000,94.000000,,,,0.000000,4.000000,4.000000,4.000000,4.000000,4.000000,4.000000,4.000000,4.000000,4.000000,4.000000,4.000000,4.000000,4.000000,4.000000,100.000000,,,,,,,,,,,,,,,,,,,,,,,,,,,,,,,,,,,,,,,,,,,,,,,,,,,,,,,,,,,,,,,,,,,,,,,,,,,,,,,,,,,,,,
1676057944.102424,1676057944.102890,77.000000,0.000000,4229.487305,4230.641113,4261.282227,4261.410156,4259.102539,4282.563965,4296.794922,4304.230957,4282.179688,4297.820313,4428.205078,4425.769043,4290.897461,4331.282227,3435.000000,4.000000,94.000000,,,,0.000000,4.000000,4.000000,4.000000,4.000000,4.000000,4.000000,4.000000,4.000000,4.000000,4.000000,4.000000,4.000000,4.000000,4.000000,100.000000,,,,,,,,,,,,,,,,,,,,,,,,,,,,,,,,,,,,,,,,,,,,,,,,,,,,,,,,,,,,,,,,,,,,,,,,,,,,,,,,,,,,,,
1676057944.110232,1676057944.110699,78.000000,0.000000,4228.333496,4228.589844,4260.641113,4260.256348,4264.102539,4282.948730,4304.487305,4304.102539,4280.000000,4293.974121,4425.512695,4426.666504,4289.487305,4329.102539,2515.000000,4.000000,94.000000,,,,0.000000,4.000000,4.000000,4.000000,4.000000,4.000000,4.000000,4.000000,4.000000,4.000000,4.000000,4.000000,4.000000,4.000000,4.000000,100.000000,1.000000,75.000000,4.000000,4.000000,3.000000,4.000000,4.000000,4.000000,3.000000,3.000000,4.000000,4.000000,4.000000,4.000000,4.000000,3.000000,4.309933,23.446259,1.026071,0.347089,0.214136,2.776127,13.288567,0.764951,0.321141,0.186992,3.457623,16.717106,0.733998,0.385430,0.183504,2.010931,11.157006,0.469643,0.223044,0.195735,0.633533,2.255789,0.585485,0.466027,0.244454,1.065492,3.865352,0.422145,0.220117,0.180923,1.580842,12.970317,3.452766,0.882171,0.979905,3.629863,43.129429,2.240411,2.453293,0.825128,2.062200,5.500391,0.479924,0.463509,0.131498,3.015731,2.071604,1.224027,0.453246,0.428093,2.072957,10.349367,0.597240,0.587497,0.239814,4.533000,21.156864,1.133204,0.756712,0.319627,2.730126,10.965876,0.522856,0.665122,0.240951,4.168835,19.772614,1.261978,0.610439,0.204654
1676057944.118041,1676057944.118407,79.000000,0.000000,4235.769043,4225.000000,4259.487305,4261.025879,4276.153809,4283.333496,4303.205078,4280.641113,4277.179688,4303.974121,4424.615234,4424.743652,4295.641113,4330.641113,2859.000000,4.000000,94.000000,,,,0.000000,4.000000,4.000000,4.000000,4.000000,4.000000,4.000000,4.000000,4.000000,4.000000,4.000000,4.000000,4.000000,4.000000,4.000000,100.000000,,,,,,,,,,,,,,,,,,,,,,,,,,,,,,,,,,,,,,,,,,,,,,,,,,,,,,,,,,,,,,,,,,,,,,,,,,,,,,,,,,,,,,
1676057944.125849,1676057944.126315,80.000000,0.000000,4252.179688,4237.820313,4272.563965,4276.025879,4282.948730,4283.205078,4284.615234,4270.256348,4279.615234,4319.615234,4431.538574,4432.563965,4311.794922,4344.487305,2797.000000,4.000000,94.000000,,,,0.000000,4.000000,4.000000,4.000000,4.000000,4.000000,4.000000,4.000000,4.000000,4.000000,4.000000,4.000000,4.000000,4.000000,4.000000,100.000000,,,,,,,,,,,,,,,,,,,,,,,,,,,,,,,,,,,,,,,,,,,,,,,,,,,,,,,,,,,,,,,,,,,,,,,,,,,,,,,,,,,,,,
1676057944.133657,1676057944.134124,81.000000,0.000000,4258.333496,4247.051270,4283.846191,4284.358887,4282.307617,4280.256348,4264.743652,4261.666504,4270.384766,4316.666504,4431.025879,4433.589844,4320.000000,4351.025879,3435.000000,4.000000,94.000000,,,,0.000000,4.000000,4.000000,4.000000,4.000000,4.000000,4.000000,4.000000,4.000000,4.000000,4.000000,4.000000,4.000000,4.000000,4.000000,100.000000,,,,,,,,,,,,,,,,,,,,,,,,,,,,,,,,,,,,,,,,,,,,,,,,,,,,,,,,,,,,,,,,,,,,,,,,,,,,,,,,,,,,,,
1676057944.141466,1676057944.142032,82.000000,0.000000,4252.948730,4239.102539,4279.743652,4278.589844,4274.615234,4271.282227,4242.820313,4238.846191,4258.589844,4302.563965,4423.461426,4425.512695,4315.769043,4346.794922,2515.000000,4.000000,94.000000,,,,0.000000,4.000000,4.000000,4.000000,4.000000,4.000000,4.000000,4.000000,4.000000,4.000000,4.000000,4.000000,4.000000,4.000000,4.000000,100.000000,,,,,,,,,,,,,,,,,,,,,,,,,,,,,,,,,,,,,,,,,,,,,,,,,,,,,,,,,,,,,,,,,,,,,,,,,,,,,,,,,,,,,,
1676057944.149274,1676057944.149841,83.000000,0.000000,4268.846191,4248.717773,4288.333496,4285.897461,4274.358887,4263.333496,4226.153809,4235.769043,4269.487305,4312.051270,4438.589844,4446.410156,4330.641113,4364.871582,2859.000000,4.000000,94.000000,,,,0.000000,4.000000,4.000000,4.000000,4.000000,4.000000,4.000000,4.000000,4.000000,4.000000,4.000000,4.000000,4.000000,4.000000,4.000000,100.000000,,,,,,,,,,,,,,,,,,,,,,,,,,,,,,,,,,,,,,,,,,,,,,,,,,,,,,,,,,,,,,,,,,,,,,,,,,,,,,,,,,,,,,
1676057944.157083,1676057944.157749,84.000000,0.000000,4292.436035,4268.333496,4308.205078,4300.897461,4276.025879,4263.333496,4241.410156,4262.948730,4286.538574,4331.666504,4464.230957,4480.769043,4358.717773,4393.333496,2797.000000,4.000000,94.000000,,,,0.000000,4.000000,4.000000,4.000000,4.000000,4.000000,4.000000,4.000000,4.000000,4.000000,4.000000,4.000000,4.000000,4.000000,4.000000,100.000000,,,,,,,,,,,,,,,,,,,,,,,,,,,,,,,,,,,,,,,,,,,,,,,,,,,,,,,,,,,,,,,,,,,,,,,,,,,,,,,,,,,,,,
1676057944.164891,1676057944.165557,85.000000,0.000000,4283.461426,4260.000000,4300.769043,4295.769043,4267.563965,4262.051270,4269.102539,4293.974121,4290.256348,4327.563965,4466.794922,4483.846191,4355.128418,4390.897461,3435.000000,4.000000,94.000000,1,1,1,0.000000,4.000000,4.000000,4.000000,4.000000,4.000000,4.000000,4.000000,4.000000,4.000000,4.000000,4.000000,4.000000,4.000000,4.000000,100.000000,,,,,,,,,,,,,,,,,,,,,,,,,,,,,,,,,,,,,,,,,,,,,,,,,,,,,,,,,,,,,,,,,,,,,,,,,,,,,,,,,,,,,,
1676057944.172699,1676057944.173466,86.000000,0.000000,4262.563965,4239.871582,4283.205078,4283.077148,4262.051270,4259.615234,4276.794922,4319.615234,4293.717773,4315.384766,4459.487305,4477.051270,4331.282227,4374.615234,2515.000000,4.000000,94.000000,,,,0.000000,4.000000,4.000000,4.000000,4.000000,4.000000,4.000000,4.000000,4.000000,4.000000,4.000000,4.000000,4.000000,4.000000,4.000000,100.000000,,,,,,,,,,,,,,,,,,,,,,,,,,,,,,,,,,,,,,,,,,,,,,,,,,,,,,,,,,,,,,,,,,,,,,,,,,,,,,,,,,,,,,
1676057944.180508,1676057944.181274,87.000000,0.000000,4255.769043,4236.282227,4282.179688,4279.871582,4265.641113,4263.846191,4280.512695,4333.077148,4302.307617,4312.948730,4458.974121,4481.922852,4325.256348,4369.743652,2859.000000,4.000000,94.000000,,,,0.000000,4.000000,4.000000,4.000000,4.000000,4.000000,4.000000,4.000000,4.000000,4.000000,4.000000,4.000000,4.000000,4.000000,4.000000,100.000000,,,,,,,,,,,,,,,,,,,,,,,,,,,,,,,,,,,,,,,,,,,,,,,,,,,,,,,,,,,,,,,,,,,,,,,,,,,,,,,,,,,,,,
1676057944.188316,1676057944.189183,88.000000,0.000000,4246.410156,4229.102539,4274.230957,4269.358887,4264.487305,4270.769043,4293.077148,4323.846191,4296.282227,4306.025879,4449.487305,4471.282227,4323.205078,4360.512695,2797.000000,4.000000,94.000000,,,,0.000000,4.000000,4.000000,4.000000,4.000000,4.000000,4.000000,4.000000,4.000000,4.000000,4.000000,4.000000,4.000000,4.000000,4.000000,100.000000,,,,,,,,,,,,,,,,,,,,,,,,,,,,,,,,,,,,,,,,,,,,,,,,,,,,,,,,,,,,,,,,,,,,,,,,,,,,,,,,,,,,,,
1676057944.196125,1676057944.196991,89.000000,0.000000,4232.051270,4217.948730,4260.512695,4259.487305,4259.487305,4276.282227,4298.461426,4306.538574,4282.179688,4295.384766,4436.794922,4446.410156,4312.436035,4348.461426,3435.000000,4.000000,94.000000,,,,0.000000,4.000000,4.000000,4.000000,4.000000,4.000000,4.000000,4.000000,4.000000,4.000000,4.000000,4.000000,4.000000,4.000000,4.000000,100.000000,,,,,,,,,,,,,,,,,,,,,,,,,,,,,,,,,,,,,,,,,,,,,,,,,,,,,,,,,,,,,,,,,,,,,,,,,,,,,,,,,,,,,,
1676057944.203933,1676057944.204700,90.000000,0.000000,4234.230957,4223.846191,4260.641113,4268.589844,4264.487305,4284.230957,4297.948730,4295.769043,4280.256348,4293.461426,4437.436035,4441.922852,4308.589844,4347.692383,2515.000000,4.000000,94.000000,,,,0.000000,4.000000,4.000000,4.000000,4.000000,4.000000,4.000000,4.000000,4.000000,4.000000,4.000000,4.000000,4.000000,4.000000,4.000000,100.000000,,,,,,,,,,,,,,,,,,,,,,,,,,,,,,,,,,,,,,,,,,,,,,,,,,,,,,,,,,,,,,,,,,,,,,,,,,,,,,,,,,,,,,
1676057944.211741,1676057944.212508,91.000000,0.000000,4246.794922,4231.410156,4267.820313,4280.512695,4271.922852,4292.436035,4307.563965,4300.128418,4284.102539,4299.615234,4443.205078,4456.666504,4312.820313,4350.512695,2859.000000,4.000000,94.000000,,,,0.000000,4.000000,4.000000,4.000000,4.000000,4.000000,4.000000,4.000000,4.000000,4.000000,4.000000,4.000000,4.000000,4.000000,4.000000,100.000000,,,,,,,,,,,,,,,,,,,,,,,,,,,,,,,,,,,,,,,,,,,,,,,,,,,,,,,,,,,,,,,,,,,,,,,,,,,,,,,,,,,,,,
1676057944.219550,1676057944.220217,92.000000,0.000000,4248.205078,4230.384766,4272.051270,4278.205078,4278.974121,4293.717773,4311.666504,4295.512695,4276.025879,4297.948730,4442.051270,4457.051270,4316.794922,4350.512695,2797.000000,4.000000,94.000000,,,,0.000000,4.000000,4.000000,4.000000,4.000000,4.000000,4.000000,4.000000,4.000000,4.000000,4.000000,4.000000,4.000000,4.000000,4.000000,100.000000,,,,,,,,,,,,,,,,,,,,,,,,,,,,,,,,,,,,,,,,,,,,,,,,,,,,,,,,,,,,,,,,,,,,,,,,,,,,,,,,,,,,,,
1676057944.227358,1676057944.228025,93.000000,0.000000,4249.358887,4237.820313,4275.769043,4276.922852,4285.384766,4287.179688,4292.307617,4268.717773,4265.000000,4286.282227,4439.871582,4444.615234,4321.153809,4355.641113,3435.000000,4.000000,94.000000,,,,0.000000,4.000000,4.000000,4.000000,4.000000,4.000000,4.000000,4.000000,4.000000,4.000000,4.000000,4.000000,4.000000,4.000000,4.000000,100.000000,,,,,,,,,,,,,,,,,,,,,,,,,,,,,,,,,,,,,,,,,,,,,,,,,,,,,,,,,,,,,,,,,,,,,,,,,,,,,,,,,,,,,,
1676057944.235167,1676057944.235734,94.000000,0.000000,4260.128418,4247.307617,4280.641113,4288.846191,4282.563965,4275.384766,4263.717773,4243.461426,4262.692383,4276.538574,4442.307617,4442.563965,4325.000000,4363.077148,2515.000000,4.000000,94.000000,,,,0.000000,4.000000,4.000000,4.000000,4.000000,4.000000,4.000000,4.000000,4.000000,4.000000,4.000000,4.000000,4.000000,4.000000,4.000000,100.000000,,,,,,,,,,,,,,,,,5.073776,22.237444,1.096516,0.383964,0.231679,3.286687,12.605784,0.802283,0.329654,0.199976,3.397163,15.201146,0.810719,0.375939,0.196705,2.309317,10.349738,0.492852,0.220419,0.207299,0.660331,2.089164,0.536902,0.522118,0.242402,1.851848,4.837807,0.422819,0.262972,0.192217,2.521937,15.954631,3.324265,0.894387,1.057901,3.991095,55.463112,2.614720,2.793752,0.869171,2.215652,6.927460,0.510875,0.479777,0.134964,3.568154,2.037502,1.395965,0.512764,0.445040,2.481574,9.825497,0.482809,0.559669,0.245776,5.150237,19.596806,1.122740,0.808433,0.360584,3.055836,10.397635,0.430347,0.516701,0.232358,6.563871,17.993093,1.930845,0.863884,0.229534
1676057944.242975,1676057944.243542,95.000000,0.000000,4269.358887,4252.179688,4285.384766,4296.025879,4278.974121,4266.153809,4247.820313,4230.384766,4260.128418,4278.461426,4442.307617,4447.820313,4327.563965,4367.948730,2859.000000,4.000000,94.000000,,,,0.000000,4.000000,4.000000,4.000000,4.000000,4.000000,4.000000,4.000000,4.000000,4.000000,4.000000,4.000000,4.000000,4.000000,4.000000,100.000000,,,,,,,,,,,,,,,,,,,,,,,,,,,,,,,,,,,,,,,,,,,,,,,,,,,,,,,,,,,,,,,,,,,,,,,,,,,,,,,,,,,,,,
1676057944.250783,1676057944.251251,96.000000,0.000000,4278.205078,4260.384766,4294.102539,4296.025879,4282.692383,4263.333496,4246.538574,4242.948730,4262.692383,4288.589844,4446.282227,4461.282227,4335.897461,4379.358887,2797.000000,4.000000,94.000000,,,,0.000000,4.000000,4.000000,4.000000,4.000000,4.000000,4.000000,4.000000,4.000000,4.000000,4.000000,4.000000,4.000000,4.000000,4.000000,100.000000,,,,,,,,,,,,,,,,,,,,,,,,,,,,,,,,,,,,,,,,,,,,,,,,,,,,,,,,,,,,,,,,,,,,,,,,,,,,,,,,,,,,,,
1676057944.258592,1676057944.259059,97.000000,0.000000,4282.436035,4260.641113,4297.948730,4292.948730,4284.102539,4259.102539,4247.948730,4272.692383,4272.820313,4297.051270,4457.436035,4475.769043,4339.102539,4388.461426,3435.000000,4.000000,94.000000,,,,0.000000,4.000000,4.000000,4.000000,4.000000,4.000000,4.000000,4.000000,4.000000,4.000000,4.000000,4.000000,4.000000,4.000000,4.000000,100.000000,,,,,,,,,,,,,,,,,,,,,,,,,,,,,,,,,,,,,,,,,,,,,,,,,,,,,,,,,,,,,,,,,,,,,,,,,,,,,,,,,,,,,,
1676057944.266400,1676057944.266768,98.000000,0.000000,4266.666504,4249.358887,4291.153809,4283.461426,4271.025879,4246.410156,4243.717773,4283.205078,4282.179688,4302.051270,4461.794922,4468.205078,4332.307617,4376.538574,2515.000000,4.000000,94.000000,,,,0.000000,4.000000,4.000000,4.000000,4.000000,4.000000,4.000000,4.000000,4.000000,4.000000,4.000000,4.000000,4.000000,4.000000,4.000000,100.000000,,,,,,,,,,,,,,,,,,,,,,,,,,,,,,,,,,,,,,,,,,,,,,,,,,,,,,,,,,,,,,,,,,,,,,,,,,,,,,,,,,,,,,
1676057944.274209,1676057944.274576,99.000000,0.000000,4249.358887,4241.794922,4281.410156,4278.205078,4261.666504,4239.487305,4242.307617,4290.384766,4291.153809,4301.282227,4460.641113,4456.153809,4327.436035,4363.846191,2859.000000,4.000000,94.000000,,,,0.000000,4.000000,4.000000,4.000000,4.000000,4.000000,4.000000,4.000000,4.000000,4.000000,4.000000,4.000000,4.000000,4.000000,4.000000,100.000000,,,,,,,,,,,,,,,,,,,,,,,,,,,,,,,,,,,,,,,,,,,,,,,,,,,,,,,,,,,,,,,,,,,,,,,,,,,,,,,,,,,,,,
1676057944.282017,1676057944.282285,100.000000,0.000000,4246.922852,4235.897461,4273.589844,4278.974121,4269.487305,4251.794922,4259.230957,4323.974121,4300.256348,4298.846191,4460.641113,4464.230957,4323.205078,4364.230957,2797.000000,4.000000,94.000000,,,,0.000000,4.000000,4.000000,4.000000,4.000000,4.000000,4.000000,4.000000,4.000000,4.000000,4.000000,4.000000,4.000000,4.000000,4.000000,100.000000,,,,,,,,,,,,,,,,,,,,,,,,,,,,,,,,,,,,,,,,,,,,,,,,,,,,,,,,,,,,,,,,,,,,,,,,,,,,,,,,,,,,,,
1676057944.289825,1676057944.290193,101.000000,0.000000,4240.384766,4228.205078,4267.051270,4271.922852,4273.461426,4270.000000,4280.512695,4335.897461,4298.589844,4296.282227,4448.846191,4460.000000,4314.358887,4355.641113,3435.000000,4.000000,94.000000,,,,0.000000,4.000000,4.000000,4.000000,4.000000,4.000000,4.000000,4.000000,4.000000,4.000000,4.000000,4.000000,4.000000,4.000000,4.000000,100.000000,,,,,,,,,,,,,,,,,,,,,,,,,,,,,,,,,,,,,,,,,,,,,,,,,,,,,,,,,,,,,,,,,,,,,,,,,,,,,,,,,,,,,,
1676057944.297634,1676057944.298001,102.000000,0.000000,4230.384766,4227.051270,4263.589844,4261.666504,4270.512695,4283.589844,4295.256348,4299.487305,4286.922852,4286.922852,4429.230957,4433.461426,4305.641113,4339.358887,2515.000000,4.000000,94.000000,,,,0.000000,4.000000,4.000000,4.000000,4.000000,4.000000,4.000000,4.000000,4.000000,4.000000,4.000000,4.000000,4.000000,4.000000,4.000000,100.000000,,,,,,,,,,,,,,,,,,,,,,,,,,,,,,,,,,,,,,,,,,,,,,,,,,,,,,,,,,,,,,,,,,,,,,,,,,,,,,,,,,,,,,
1676057944.305442,1676057944.305910,103.000000,0.000000,4230.000000,4228.717773,4261.282227,4260.897461,4272.307617,4289.487305,4309.871582,4275.641113,4281.282227,4278.717773,4422.563965,4421.282227,4301.153809,4333.846191,2859.000000,4.000000,94.000000,,,,0.000000,4.000000,4.000000,4.000000,4.000000,4.000000,4.000000,4.000000,4.000000,4.000000,4.000000,4.000000,4.000000,4.000000,4.000000,100.000000,,,,,,,,,,,,,,,,,,,,,,,,,,,,,,,,,,,,,,,,,,,,,,,,,,,,,,,,,,,,,,,,,,,,,,,,,,,,,,,,,,,,,,
1676057944.313251,1676057944.313718,104.000000,0.000000,4231.153809,4229.102539,4259.358887,4265.641113,4273.717773,4284.871582,4307.948730,4282.692383,4280.897461,4283.205078,4426.410156,4425.256348,4303.077148,4334.358887,2797.000000,4.000000,94.000000,,,,0.000000,4.000000,4.000000,4.000000,4.000000,4.000000,4.000000,4.000000,4.000000,4.000000,4.000000,4.000000,4.000000,4.000000,4.000000,100.000000,,,,,,,,,,,,,,,,,,,,,,,,,,,,,,,,,,,,,,,,,,,,,,,,,,,,,,,,,,,,,,,,,,,,,,,,,,,,,,,,,,,,,,
1676057944.321059,1676057944.321626,105.000000,0.000000,4237.051270,4231.282227,4267.692383,4272.563965,4273.846191,4278.846191,4287.948730,4282.563965,4278.846191,4292.307617,4435.641113,4433.077148,4314.230957,4339.871582,3435.000000,4.000000,94.000000,,,,0.000000,4.000000,4.000000,4.000000,4.000000,4.000000,4.000000,4.000000,4.000000,4.000000,4.000000,4.000000,4.000000,4.000000,4.000000,100.000000,,,,,,,,,,,,,,,,,,,,,,,,,,,,,,,,,,,,,,,,,,,,,,,,,,,,,,,,,,,,,,,,,,,,,,,,,,,,,,,,,,,,,,
1676057944.328867,1676057944.329435,106.000000,0.000000,4253.461426,4234.358887,4281.153809,4278.589844,4279.358887,4278.333496,4273.589844,4269.358887,4274.487305,4292.692383,4445.128418,4442.820313,4323.717773,4353.717773,2515.000000,4.000000,94.000000,,,,0.000000,4.000000,4.000000,4.000000,4.000000,4.000000,4.000000,4.000000,4.000000,4.000000,4.000000,4.000000,4.000000,4.000000,4.000000,100.000000,,,,,,,,,,,,,,,,,,,,,,,,,,,,,,,,,,,,,,,,,,,,,,,,,,,,,,,,,,,,,,,,,,,,,,,,,,,,,,,,,,,,,,
1676057944.336676,1676057944.337343,107.000000,0.000000,4268.077148,4246.282227,4287.051270,4282.179688,4286.282227,4279.102539,4265.641113,4252.820313,4275.512695,4295.897461,4445.641113,4447.436035,4329.102539,4365.512695,2859.000000,4.000000,94.000000,,,,0.000000,4.000000,4.000000,4.000000,4.000000,4.000000,4.000000,4.000000,4.000000,4.000000,4.000000,4.000000,4.000000,4.000000,4.000000,100.000000,,,,,,,,,,,,,,,,,,,,,,,,,,,,,,,,,,,,,,,,,,,,,,,,,,,,,,,,,,,,,,,,,,,,,,,,,,,,,,,,,,,,,,
1676057944.344484,1676057944.345152,108.000000,0.000000,4279.358887,4260.512695,4290.897461,4292.051270,4291.794922,4275.256348,4248.077148,4230.512695,4275.384766,4301.410156,4446.794922,4449.358887,4342.436035,4372.820313,2797.000000,4.000000,94.000000,,,,0.000000,4.000000,4.000000,4.000000,4.000000,4.000000,4.000000,4.000000,4.000000,4.000000,4.000000,4.000000,4.000000,4.000000,4.000000,100.000000,,,,,,,,,,,,,,,,,,,,,,,,,,,,,,,,,,,,,,,,,,,,,,,,,,,,,,,,,,,,,,,,,,,,,,,,,,,,,,,,,,,,,,
1676057944.352293,1676057944.353060,109.000000,0.000000,4293.717773,4267.820313,4301.410156,4305.128418,4289.230957,4269.487305,4230.512695,4223.333496,4267.051270,4298.077148,4455.897461,4460.641113,4354.615234,4383.333496,3435.000000,4.000000,94.000000,,,,0.000000,4.000000,4.000000,4.000000,4.000000,4.000000,4.000000,4.000000,4.000000,4.000000,4.000000,4.000000,4.000000,4.000000,4.000000,100.000000,,,,,,,,,,,,,,,,,,,,,,,,,,,,,,,,,,,,,,,,,,,,,,,,,,,,,,,,,,,,,,,,,,,,,,,,,,,,,,,,,,,,,,
1676057944.360101,1676057944.360869,110.000000,0.000000,4299.230957,4268.077148,4310.128418,4310.769043,4277.051270,4264.358887,4228.461426,4247.179688,4269.743652,4293.717773,4463.589844,4477.948730,4354.743652,4392.563965,2515.000000,4.000000,94.000000,,,,0.000000,4.000000,4.000000,4.000000,4.000000,4.000000,4.000000,4.000000,4.000000,4.000000,4.000000,4.000000,4.000000,4.000000,4.000000,100.000000,,,,,,,,,,,,,,,,,5.792224,20.792221,1.191579,0.434258,0.244738,3.637287,11.980586,0.823130,0.346179,0.213360,3.425401,13.558208,0.900794,0.372979,0.208099,2.730131,9.562241,0.521945,0.238817,0.215917,0.730348,1.850265,0.498159,0.557672,0.247333,2.926874,6.063007,0.395703,0.313252,0.199120,3.801758,18.944599,3.090769,0.911958,1.107634,4.338269,63.668541,3.153329,3.072423,0.965166,2.316856,8.111946,0.531577,0.477193,0.135616,3.990196,2.084923,1.469077,0.572615,0.467787,2.715549,9.183412,0.442559,0.550636,0.250895,5.557900,17.603384,1.202466,0.881838,0.395860,3.313071,9.911223,0.397792,0.453626,0.228203,10.461153,16.306580,3.108333,1.370506,0.269917
1676057944.367909,1676057944.368777,111.000000,0.000000,4290.000000,4260.897461,4307.563965,4303.846191,4275.256348,4261.538574,4233.589844,4259.487305,4280.512695,4296.922852,4457.179688,4477.563965,4349.230957,4391.410156,2859.000000,4.000000,94.000000,,,,0.000000,4.000000,4.000000,4.000000,4.000000,4.000000,4.000000,4.000000,4.000000,4.000000,4.000000,4.000000,4.000000,4.000000,4.000000,100.000000,,,,,,,,,,,,,,,,,,,,,,,,,,,,,,,,,,,,,,,,,,,,,,,,,,,,,,,,,,,,,,,,,,,,,,,,,,,,,,,,,,,,,,
1676057944.375718,1676057944.376585,112.000000,0.000000,4273.846191,4249.102539,4296.410156,4288.205078,4282.563965,4258.333496,4240.128418,4262.179688,4285.641113,4300.641113,4447.563965,4465.256348,4341.282227,4377.436035,2797.000000,4.000000,94.000000,,,,0.000000,4.000000,4.000000,4.000000,4.000000,4.000000,4.000000,4.000000,4.000000,4.000000,4.000000,4.000000,4.000000,4.000000,4.000000,100.000000,,,,,,,,,,,,,,,,,,,,,,,,,,,,,,,,,,,,,,,,,,,,,,,,,,,,,,,,,,,,,,,,,,,,,,,,,,,,,,,,,,,,,,
1676057944.383526,1676057944.384494,113.000000,0.000000,4256.794922,4237.820313,4286.153809,4277.820313,4279.358887,4256.538574,4258.846191,4288.461426,4289.743652,4297.179688,4442.179688,4456.153809,4331.025879,4360.641113,3435.000000,4.000000,94.000000,,,,0.000000,4.000000,4.000000,4.000000,4.000000,4.000000,4.000000,4.000000,4.000000,4.000000,4.000000,4.000000,4.000000,4.000000,4.000000,100.000000,,,,,,,,,,,,,,,,,,,,,,,,,,,,,,,,,,,,,,,,,,,,,,,,,,,,,,,,,,,,,,,,,,,,,,,,,,,,,,,,,,,,,,
1676057944.391335,1676057944.392302,114.000000,0.000000,4245.641113,4231.153809,4278.717773,4276.153809,4271.794922,4263.589844,4290.512695,4315.384766,4294.615234,4295.641113,4435.641113,4449.487305,4321.666504,4352.692383,2515.000000,4.000000,94.000000,,,,0.000000,4.000000,4.000000,4.000000,4.000000,4.000000,4.000000,4.000000,4.000000,4.000000,4.000000,4.000000,4.000000,4.000000,4.000000,100.000000,,,,,,,,,,,,,,,,,,,,,,,,,,,,,,,,,,,,,,,,,,,,,,,,,,,,,,,,,,,,,,,,,,,,,,,,,,,,,,,,,,,,,,
1676057944.399143,1676057944.400011,115.000000,0.000000,4247.820313,4230.897461,4272.563965,4277.692383,4274.358887,4278.205078,4320.769043,4326.666504,4296.025879,4294.615234,4436.410156,4451.153809,4319.487305,4362.307617,2859.000000,4.000000,94.000000,,,,0.000000,4.000000,4.000000,4.000000,4.000000,4.000000,4.000000,4.000000,4.000000,4.000000,4.000000,4.000000,4.000000,4.000000,4.000000,100.000000,,,,,,,,,,,,,,,,,,,,,,,,,,,,,,,,,,,,,,,,,,,,,,,,,,,,,,,,,,,,,,,,,,,,,,,,,,,,,,,,,,,,,,
1676057944.406951,1676057944.407819,116.000000,0.000000,4249.230957,4232.051270,4271.025879,4276.922852,4280.256348,4286.922852,4328.589844,4332.436035,4294.871582,4285.512695,4440.897461,4454.102539,4320.769043,4377.563965,2797.000000,4.000000,94.000000,,,,0.000000,4.000000,4.000000,4.000000,4.000000,4.000000,4.000000,4.000000,4.000000,4.000000,4.000000,4.000000,4.000000,4.000000,4.000000,100.000000,,,,,,,,,,,,,,,,,,,,,,,,,,,,,,,,,,,,,,,,,,,,,,,,,,,,,,,,,,,,,,,,,,,,,,,,,,,,,,,,,,,,,,
1676057944.414760,1676057944.415528,117.000000,0.000000,4235.000000,4229.358887,4265.256348,4266.538574,4278.205078,4282.948730,4308.077148,4319.358887,4287.436035,4277.948730,4431.794922,4440.897461,4318.205078,4371.794922,3435.000000,4.000000,94.000000,,,,0.000000,4.000000,4.000000,4.000000,4.000000,4.000000,4.000000,4.000000,4.000000,4.000000,4.000000,4.000000,4.000000,4.000000,4.000000,100.000000,,,,,,,,,,,,,,,,,,,,,,,,,,,,,,,,,,,,,,,,,,,,,,,,,,,,,,,,,,,,,,,,,,,,,,,,,,,,,,,,,,,,,,
1676057944.422568,1676057944.423336,118.000000,0.000000,4228.333496,4228.205078,4258.077148,4258.333496,4274.743652,4280.512695,4286.153809,4294.871582,4280.641113,4278.333496,4425.128418,4433.333496,4319.615234,4360.128418,2515.000000,4.000000,94.000000,,,,0.000000,4.000000,4.000000,4.000000,4.000000,4.000000,4.000000,4.000000,4.000000,4.000000,4.000000,4.000000,4.000000,4.000000,4.000000,100.000000,,,,,,,,,,,,,,,,,,,,,,,,,,,,,,,,,,,,,,,,,,,,,,,,,,,,,,,,,,,,,,,,,,,,,,,,,,,,,,,,,,,,,,
1676057944.430377,1676057944.431045,119.000000,0.000000,4238.589844,4229.871582,4259.230957,4264.487305,4279.230957,4280.000000,4274.230957,4278.974121,4282.820313,4279.358887,4431.666504,4439.102539,4324.102539,4363.205078,2859.000000,4.000000,94.000000,,,,0.000000,4.000000,4.000000,4.000000,4.000000,4.000000,4.000000,4.000000,4.000000,4.000000,4.000000,4.000000,4.000000,4.000000,4.000000,100.000000,,,,,,,,,,,,,,,,,,,,,,,,,,,,,,,,,,,,,,,,,,,,,,,,,,,,,,,,,,,,,,,,,,,,,,,,,,,,,,,,,,,,,,
1676057944.438185,1676057944.438853,120.000000,0.000000,4243.589844,4236.282227,4265.641113,4273.589844,4278.077148,4270.641113,4254.743652,4253.846191,4275.897461,4283.077148,4430.000000,4429.102539,4323.589844,4364.102539,2797.000000,4.000000,94.000000,,,,0.000000,4.000000,4.000000,4.000000,4.000000,4.000000,4.000000,4.000000,4.000000,4.000000,4.000000,4.000000,4.000000,4.000000,4.000000,100.000000,,,,,,,,,,,,,,,,,,,,,,,,,,,,,,,,,,,,,,,,,,,,,,,,,,,,,,,,,,,,,,,,,,,,,,,,,,,,,,,,,,,,,,
1676057944.445993,1676057944.446562,121.000000,0.000000,4256.153809,4254.230957,4280.128418,4285.384766,4277.563965,4265.000000,4243.461426,4234.102539,4272.436035,4299.102539,4433.077148,4429.358887,4333.589844,4372.179688,3435.000000,4.000000,94.000000,,,,0.000000,4.000000,4.000000,4.000000,4.000000,4.000000,4.000000,4.000000,4.000000,4.000000,4.000000,4.000000,4.000000,4.000000,4.000000,100.000000,,,,,,,,,,,,,,,,,,,,,,,,,,,,,,,,,,,,,,,,,,,,,,,,,,,,,,,,,,,,,,,,,,,,,,,,,,,,,,,,,,,,,,
1676057944.453802,1676057944.454470,122.000000,0.000000,4284.615234,4269.230957,4300.128418,4302.948730,4288.077148,4266.794922,4247.563965,4241.282227,4280.897461,4311.153809,4455.000000,4458.974121,4352.307617,4396.025879,2515.000000,4.000000,94.000000,,,,0.000000,4.000000,4.000000,4.000000,4.000000,4.000000,4.000000,4.000000,4.000000,4.000000,4.000000,4.000000,4.000000,4.000000,4.000000,100.000000,,,,,,,,,,,,,,,,,,,,,,,,,,,,,,,,,,,,,,,,,,,,,,,,,,,,,,,,,,,,,,,,,,,,,,,,,,,,,,,,,,,,,,
1676057944.461610,1676057944.462278,123.000000,0.000000,4297.051270,4270.384766,4307.436035,4306.153809,4286.025879,4257.948730,4236.153809,4242.948730,4270.384766,4302.820313,4460.897461,4470.128418,4353.589844,4405.641113,2859.000000,4.000000,94.000000,,,,0.000000,4.000000,4.000000,4.000000,4.000000,4.000000,4.000000,4.000000,4.000000,4.000000,4.000000,4.000000,4.000000,4.000000,4.000000,100.000000,,,,,,,,,,,,,,,,,,,,,,,,,,,,,,,,,,,,,,,,,,,,,,,,,,,,,,,,,,,,,,,,,,,,,,,,,,,,,,,,,,,,,,
1676057944.469419,1676057944.470187,124.000000,0.000000,4296.282227,4275.128418,4307.692383,4304.871582,4273.077148,4245.512695,4225.512695,4233.205078,4255.128418,4296.922852,4455.128418,4464.102539,4351.666504,4402.563965,2797.000000,4.000000,94.000000,,,,0.000000,4.000000,4.000000,4.000000,4.000000,4.000000,4.000000,4.000000,4.000000,4.000000,4.000000,4.000000,4.000000,4.000000,4.000000,100.000000,,,,,,,,,,,,,,,,,,,,,,,,,,,,,,,,,,,,,,,,,,,,,,,,,,,,,,,,,,,,,,,,,,,,,,,,,,,,,,,,,,,,,,
1676057944.477227,1676057944.477995,125.000000,0.000000,4309.871582,4289.230957,4323.717773,4322.563965,4278.333496,4245.897461,4244.743652,4254.358887,4269.615234,4307.820313,4469.743652,4483.589844,4367.563965,4418.589844,3435.000000,4.000000,94.000000,,,,0.000000,4.000000,4.000000,4.000000,4.000000,4.000000,4.000000,4.000000,4.000000,4.000000,4.000000,4.000000,4.000000,4.000000,4.000000,100.000000,,,,,,,,,,,,,,,,,,,,,,,,,,,,,,,,,,,,,,,,,,,,,,,,,,,,,,,,,,,,,,,,,,,,,,,,,,,,,,,,,,,,,,
1676057944.485035,1676057944.485804,126.000000,0.000000,4321.410156,4290.512695,4336.922852,4333.846191,4286.410156,4248.589844,4263.205078,4299.230957,4285.000000,4315.769043,4488.974121,4511.025879,4376.922852,4433.333496,2515.000000,4.000000,94.000000,,,,0.000000,4.000000,4.000000,4.000000,4.000000,4.000000,4.000000,4.000000,4.000000,4.000000,4.000000,4.000000,4.000000,4.000000,4.000000,100.000000,,,,,,,,,,,,,,,,,6.336462,19.925554,1.241865,0.492470,0.251771,3.753930,11.847481,0.805943,0.370545,0.225026,3.455520,12.492543,0.928939,0.374940,0.218726,3.140702,9.163372,0.525224,0.270823,0.221850,0.850737,1.655627,0.471514,0.554625,0.254910,4.054029,7.369638,0.343255,0.356937,0.196921,5.077909,21.647120,2.715672,0.941442,1.102637,4.766009,66.079742,3.776743,3.318832,1.098470,2.405178,8.830108,0.537254,0.465412,0.136085,4.074152,2.196135,1.421529,0.616737,0.491129,2.731523,8.638961,0.462729,0.575518,0.253385,5.648203,15.728298,1.310527,0.998720,0.427467,3.488620,9.872999,0.407227,0.473066,0.229570,15.401338,15.605191,4.645768,2.103929,0.322860
1676057944.492844,1676057944.493512,127.000000,0.000000,4313.461426,4282.436035,4329.102539,4320.128418,4278.461426,4245.000000,4271.666504,4316.922852,4281.538574,4311.153809,4492.436035,4514.615234,4368.717773,4423.974121,94.000000,4.000000,94.000000,,,,0.000000,4.000000,4.000000,4.000000,4.000000,4.000000,4.000000,4.000000,4.000000,4.000000,4.000000,4.000000,4.000000,4.000000,4.000000,100.000000,,,,,,,,,,,,,,,,,,,,,,,,,,,,,,,,,,,,,,,,,,,,,,,,,,,,,,,,,,,,,,,,,,,,,,,,,,,,,,,,,,,,,,
1676057944.500652,1676057944.501421,0.000000,0.000000,4304.230957,4278.717773,4321.666504,4310.512695,4273.974121,4243.589844,4287.307617,4318.589844,4288.461426,4311.025879,4491.025879,4512.051270,4362.307617,4414.743652,2242.000000,4.000000,94.000000,,,,0.000000,4.000000,4.000000,4.000000,4.000000,4.000000,4.000000,4.000000,4.000000,4.000000,4.000000,4.000000,4.000000,4.000000,4.000000,100.000000,,,,,,,,,,,,,,,,,,,,,,,,,,,,,,,,,,,,,,,,,,,,,,,,,,,,,,,,,,,,,,,,,,,,,,,,,,,,,,,,,,,,,,
1676057944.508461,1676057944.509229,1.000000,0.000000,4300.128418,4273.205078,4321.410156,4311.410156,4281.410156,4253.589844,4304.871582,4334.871582,4305.256348,4312.436035,4489.102539,4513.461426,4358.461426,4415.000000,2349.000000,4.000000,94.000000,,,,0.000000,4.000000,4.000000,4.000000,4.000000,4.000000,4.000000,4.000000,4.000000,4.000000,4.000000,4.000000,4.000000,4.000000,4.000000,100.000000,,,,,,,,,,,,,,,,,,,,,,,,,,,,,,,,,,,,,,,,,,,,,,,,,,,,,,,,,,,,,,,,,,,,,,,,,,,,,,,,,,,,,,
1676057944.516269,1676057944.517137,2.000000,0.000000,4287.563965,4262.307617,4308.461426,4297.307617,4283.077148,4268.077148,4319.487305,4340.128418,4307.051270,4300.256348,4474.743652,4499.487305,4346.922852,4403.461426,2383.000000,4.000000,94.000000,,,,0.000000,4.000000,4.000000,4.000000,4.000000,4.000000,4.000000,4.000000,4.000000,4.000000,4.000000,4.000000,4.000000,4.000000,4.000000,100.000000,,,,,,,,,,,,,,,,,,,,,,,,,,,,,,,,,,,,,,,,,,,,,,,,,,,,,,,,,,,,,,,,,,,,,,,,,,,,,,,,,,,,,,
1676057944.524077,1676057944.524946,3.000000,0.000000,4268.205078,4247.820313,4288.205078,4282.051270,4271.025879,4275.000000,4322.948730,4336.794922,4297.179688,4296.666504,4458.205078,4477.436035,4334.487305,4383.205078,2264.000000,4.000000,94.000000,,,,0.000000,4.000000,4.000000,4.000000,4.000000,4.000000,4.000000,4.000000,4.000000,4.000000,4.000000,4.000000,4.000000,4.000000,4.000000,100.000000,,,,,,,,,,,,,,,,,,,,,,,,,,,,,,,,,,,,,,,,,,,,,,,,,,,,,,,,,,,,,,,,,,,,,,,,,,,,,,,,,,,,,,
1676057944.531886,1676057944.532854,4.000000,0.000000,4250.769043,4234.358887,4272.179688,4275.641113,4259.615234,4276.538574,4304.743652,4324.102539,4285.769043,4296.538574,4446.538574,4456.538574,4327.563965,4367.820313,2289.000000,4.000000,94.000000,,,,0.000000,4.000000,4.000000,4.000000,4.000000,4.000000,4.000000,4.000000,4.000000,4.000000,4.000000,4.000000,4.000000,4.000000,4.000000,100.000000,,,,,,,,,,,,,,,,,,,,,,,,,,,,,,,,,,,,,,,,,,,,,,,,,,,,,,,,,,,,,,,,,,,,,,,,,,,,,,,,,,,,,,
1676057944.539694,1676057944.540663,5.000000,0.000000,4241.410156,4232.948730,4261.282227,4266.666504,4267.820313,4280.256348,4285.512695,4273.461426,4277.307617,4279.487305,4430.256348,4427.948730,4321.025879,4355.512695,2102.000000,4.000000,94.000000,,,,0.000000,4.000000,4.000000,4.000000,4.000000,4.000000,4.000000,4.000000,4.000000,4.000000,4.000000,4.000000,4.000000,4.000000,4.000000,100.000000,,,,,,,,,,,,,,,,,,,,,,,,,,,,,,,,,,,,,,,,,,,,,,,,,,,,,,,,,,,,,,,,,,,,,,,,,,,,,,,,,,,,,,
1676057944.547503,1676057944.548571,6.000000,0.000000,4249.871582,4247.051270,4266.538574,4268.461426,4282.307617,4282.948730,4281.282227,4240.128418,4279.743652,4277.051270,4426.794922,4420.769043,4324.871582,4353.974121,2279.000000,4.000000,94.000000,,,,0.000000,4.000000,4.000000,4.000000,4.000000,4.000000,4.000000,4.000000,4.000000,4.000000,4.000000,4.000000,4.000000,4.000000,4.000000,100.000000,,,,,,,,,,,,,,,,,,,,,,,,,,,,,,,,,,,,,,,,,,,,,,,,,,,,,,,,,,,,,,,,,,,,,,,,,,,,,,,,,,,,,,
1676057944.555311,1676057944.556379,7.000000,0.000000,4262.948730,4258.205078,4279.102539,4281.153809,4280.384766,4280.000000,4271.666504,4259.230957,4280.384766,4297.307617,4440.769043,4442.179688,4340.641113,4365.897461,2438.000000,4.000000,94.000000,,,,0.000000,4.000000,4.000000,4.000000,4.000000,4.000000,4.000000,4.000000,4.000000,4.000000,4.000000,4.000000,4.000000,4.000000,4.000000,100.000000,,,,,,,,,,,,,,,,,,,,,,,,,,,,,,,,,,,,,,,,,,,,,,,,,,,,,,,,,,,,,,,,,,,,,,,,,,,,,,,,,,,,,,
1676057944.563119,1676057944.564288,8.000000,0.000000,4264.615234,4257.692383,4279.743652,4283.077148,4274.615234,4271.153809,4251.922852,4258.846191,4268.461426,4299.230957,4442.436035,4445.769043,4343.717773,4373.974121,2030.000000,4.000000,94.000000,,,,0.000000,4.000000,4.000000,4.000000,4.000000,4.000000,4.000000,4.000000,4.000000,4.000000,4.000000,4.000000,4.000000,4.000000,4.000000,100.000000,,,,,,,,,,,,,,,,,,,,,,,,,,,,,,,,,,,,,,,,,,,,,,,,,,,,,,,,,,,,,,,,,,,,,,,,,,,,,,,,,,,,,,
1676057944.570928,1676057944.572096,9.000000,0.000000,4268.461426,4260.641113,4283.589844,4285.256348,4274.102539,4263.333496,4246.922852,4236.282227,4261.922852,4289.102539,4440.769043,4442.307617,4340.641113,4376.922852,2172.000000,4.000000,94.000000,,,,0.000000,4.000000,4.000000,4.000000,4.000000,4.000000,4.000000,4.000000,4.000000,4.000000,4.000000,4.000000,4.000000,4.000000,4.000000,100.000000,,,,,,,,,,,,,,,,,,,,,,,,,,,,,,,,,,,,,,,,,,,,,,,,,,,,,,,,,,,,,,,,,,,,,,,,,,,,,,,,,,,,,,
1676057944.578736,1676057944.579805,10.000000,0.000000,4280.256348,4272.563965,4300.512695,4299.743652,4274.487305,4265.769043,4259.102539,4245.000000,4265.256348,4295.512695,4454.230957,4461.666504,4351.922852,4386.153809,2521.000000,4.000000,94.000000,,,,0.000000,4.000000,4.000000,4.000000,4.000000,4.000000,4.000000,4.000000,4.000000,4.000000,4.000000,4.000000,4.000000,4.000000,4.000000,100.000000,,,,,,,,,,,,,,,,,,,,,,,,,,,,,,,,,,,,,,,,,,,,,,,,,,,,,,,,,,,,,,,,,,,,,,,,,,,,,,,,,,,,,,
1676057944.586545,1676057944.587613,11.000000,0.000000,4288.205078,4279.743652,4309.615234,4306.794922,4285.384766,4274.743652,4282.692383,4270.769043,4266.025879,4300.384766,4466.538574,4479.230957,4359.487305,4396.282227,2864.000000,4.000000,94.000000,,,,0.000000,4.000000,4.000000,4.000000,4.000000,4.000000,4.000000,4.000000,4.000000,4.000000,4.000000,4.000000,4.000000,4.000000,4.000000,100.000000,,,,,,,,,,,,,,,,,,,,,,,,,,,,,,,,,,,,,,,,,,,,,,,,,,,,,,,,,,,,,,,,,,,,,,,,,,,,,,,,,,,,,,
1676057944.594353,1676057944.595322,12.000000,0.000000,4293.333496,4279.358887,4311.153809,4303.589844,4300.769043,4283.846191,4307.051270,4292.051270,4267.051270,4296.025879,4471.666504,4486.410156,4358.461426,4402.948730,2805.000000,4.000000,94.000000,,,,0.000000,4.000000,4.000000,4.000000,4.000000,4.000000,4.000000,4.000000,4.000000,4.000000,4.000000,4.000000,4.000000,4.000000,4.000000,100.000000,,,,,,,,,,,,,,,,,,,,,,,,,,,,,,,,,,,,,,,,,,,,,,,,,,,,,,,,,,,,,,,,,,,,,,,,,,,,,,,,,,,,,,
1676057944.602161,1676057944.603130,13.000000,0.000000,4292.436035,4275.769043,4313.205078,4305.769043,4295.384766,4281.922852,4309.743652,4313.205078,4273.846191,4297.692383,4479.230957,4497.051270,4362.692383,4406.025879,3438.000000,4.000000,94.000000,,,,0.000000,4.000000,4.000000,4.000000,4.000000,4.000000,4.000000,4.000000,4.000000,4.000000,4.000000,4.000000,4.000000,4.000000,4.000000,100.000000,,,,,,,,,,,,,,,,,,,,,,,,,,,,,,,,,,,,,,,,,,,,,,,,,,,,,,,,,,,,,,,,,,,,,,,,,,,,,,,,,,,,,,
1676057944.609970,1676057944.610839,14.000000,0.000000,4277.820313,4270.769043,4306.282227,4300.128418,4276.922852,4267.948730,4297.692383,4322.820313,4281.538574,4298.205078,4480.769043,4497.563965,4362.051270,4402.179688,2521.000000,4.000000,94.000000,,,,0.000000,4.000000,4.000000,4.000000,4.000000,4.000000,4.000000,4.000000,4.000000,4.000000,4.000000,4.000000,4.000000,4.000000,4.000000,100.000000,1.000000,58.333332,4.000000,4.000000,3.000000,4.000000,4.000000,3.000000,3.000000,1.000000,4.000000,4.000000,4.000000,4.000000,4.000000,3.000000,6.575299,20.028860,1.221577,0.549081,0.254268,3.631368,12.318132,0.752892,0.397246,0.232410,3.426620,12.305101,0.870182,0.375053,0.228431,3.417176,9.259212,0.499143,0.305093,0.224908,1.001404,1.596936,0.452620,0.509029,0.259789,4.965873,8.530856,0.288680,0.384723,0.183638,6.048283,24.110538,2.241222,0.984389,1.030561,5.242143,63.271252,4.348870,3.552791,1.229894,2.469801,8.998628,0.521346,0.456637,0.138286,3.879117,2.335201,1.275448,0.636959,0.505785,2.574162,8.299574,0.507557,0.633176,0.251879,5.441605,14.343435,1.384136,1.158362,0.459035,3.505914,10.408545,0.432947,0.538185,0.236031,19.995546,16.273613,6.160119,2.905082,0.377459
1676057944.617778,1676057944.618647,15.000000,0.000000,4267.307617,4263.077148,4291.794922,4287.307617,4275.769043,4264.871582,4296.794922,4313.333496,4292.051270,4296.153809,4472.948730,4482.692383,4349.743652,4393.205078,2864.000000,4.000000,94.000000,,,,0.000000,4.000000,4.000000,4.000000,4.000000,4.000000,4.000000,4.000000,4.000000,4.000000,4.000000,4.000000,4.000000,4.000000,4.000000,100.000000,,,,,,,,,,,,,,,,,,,,,,,,,,,,,,,,,,,,,,,,,,,,,,,,,,,,,,,,,,,,,,,,,,,,,,,,,,,,,,,,,,,,,,
1676057944.625587,1676057944.626356,16.000000,0.000000,4261.282227,4254.358887,4280.897461,4278.205078,4282.948730,4277.563965,4300.000000,4297.820313,4296.410156,4297.948730,4459.358887,4466.282227,4335.000000,4381.282227,0.000000,4.000000,94.000000,,,,0.000000,4.000000,4.000000,4.000000,4.000000,4.000000,4.000000,4.000000,4.000000,4.000000,4.000000,4.000000,4.000000,4.000000,4.000000,100.000000,,,,,,,,,,,,,,,,,,,,,,,,,,,,,,,,,,,,,,,,,,,,,,,,,,,,,,,,,,,,,,,,,,,,,,,,,,,,,,,,,,,,,,
1676057944.633395,1676057944.634164,17.000000,0.000000,4248.077148,4245.000000,4276.794922,4270.769043,4275.769043,4283.333496,4295.512695,4296.153809,4286.282227,4290.128418,4443.461426,4452.307617,4322.307617,4366.794922,0.000000,4.000000,94.000000,,,,0.000000,4.000000,4.000000,4.000000,4.000000,4.000000,4.000000,4.000000,4.000000,4.000000,4.000000,4.000000,4.000000,4.000000,4.000000,100.000000,,,,,,,,,,,,,,,,,,,,,,,,,,,,,,,,,,,,,,,,,,,,,,,,,,,,,,,,,,,,,,,,,,,,,,,,,,,,,,,,,,,,,,
1676057944.641203,1676057944.641873,18.000000,0.000000,4242.179688,4240.897461,4276.410156,4263.205078,4265.641113,4281.153809,4296.282227,4300.128418,4283.717773,4278.974121,4438.974121,4443.974121,4319.230957,4357.563965,0.000000,4.000000,94.000000,,,,0.000000,4.000000,4.000000,4.000000,4.000000,4.000000,4.000000,4.000000,4.000000,4.000000,4.000000,4.000000,4.000000,4.000000,4.000000,100.000000,,,,,,,,,,,,,,,,,,,,,,,,,,,,,,,,,,,,,,,,,,,,,,,,,,,,,,,,,,,,,,,,,,,,,,,,,,,,,,,,,,,,,,
1676057944.649012,1676057944.649681,19.000000,0.000000,4244.615234,4243.846191,4278.077148,4260.641113,4266.282227,4282.948730,4294.871582,4284.615234,4293.717773,4286.794922,4441.025879,4439.358887,4322.179688,4355.128418,0.000000,4.000000,94.000000,,,,0.000000,4.000000,4.000000,4.000000,4.000000,4.000000,4.000000,4.000000,4.000000,4.000000,4.000000,4.000000,4.000000,4.000000,4.000000,100.000000,,,,,,,,,,,,,,,,,,,,,,,,,,,,,,,,,,,,,,,,,,,,,,,,,,,,,,,,,,,,,,,,,,,,,,,,,,,,,,,,,,,,,,
1676057944.656820,1676057944.657390,20.000000,0.000000,4247.179688,4246.282227,4284.615234,4267.563965,4265.769043,4281.922852,4281.153809,4264.358887,4297.051270,4295.128418,4442.051270,4436.666504,4324.230957,4357.051270,0.000000,4.000000,94.000000,,,,0.000000,4.000000,4.000000,4.000000,4.000000,4.000000,4.000000,4.000000,4.000000,4.000000,4.000000,4.000000,4.000000,4.000000,4.000000,100.000000,,,,,,,,,,,,,,,,,,,,,,,,,,,,,,,,,,,,,,,,,,,,,,,,,,,,,,,,,,,,,,,,,,,,,,,,,,,,,,,,,,,,,,
1676057944.664629,1676057944.665198,21.000000,0.000000,4260.897461,4257.307617,4298.846191,4283.974121,4263.589844,4279.358887,4272.820313,4259.230957,4292.563965,4288.461426,4451.538574,4447.820313,4338.461426,4369.871582,0.000000,4.000000,94.000000,,,,0.000000,4.000000,4.000000,4.000000,4.000000,4.000000,4.000000,4.000000,4.000000,4.000000,4.000000,4.000000,4.000000,4.000000,4.000000,100.000000,,,,,,,,,,,,,,,,,,,,,,,,,,,,,,,,,,,,,,,,,,,,,,,,,,,,,,,,,,,,,,,,,,,,,,,,,,,,,,,,,,,,,,
1676057944.672437,1676057944.672907,22.000000,0.000000,4280.769043,4277.051270,4314.615234,4298.333496,4271.666504,4280.128418,4274.871582,4251.153809,4292.563965,4291.153809,4463.717773,4461.922852,4356.666504,4387.179688,0.000000,4.000000,94.000000,,,,0.000000,4.000000,4.000000,4.000000,4.000000,4.000000,4.000000,4.000000,4.000000,4.000000,4.000000,4.000000,4.000000,4.000000,4.000000,100.000000,,,,,,,,,,,,,,,,,,,,,,,,,,,,,,,,,,,,,,,,,,,,,,,,,,,,,,,,,,,,,,,,,,,,,,,,,,,,,,,,,,,,,,
1676057944.680245,1676057944.680715,23.000000,0.000000,4286.922852,4286.922852,4321.282227,4299.487305,4272.692383,4273.461426,4270.384766,4242.051270,4296.794922,4301.153809,4468.077148,4465.000000,4358.205078,4391.410156,0.000000,4.000000,94.000000,,,,0.000000,4.000000,4.000000,4.000000,4.000000,4.000000,4.000000,4.000000,4.000000,4.000000,4.000000,4.000000,4.000000,4.000000,4.000000,100.000000,,,,,,,,,,,,,,,,,,,,,,,,,,,,,,,,,,,,,,,,,,,,,,,,,,,,,,,,,,,,,,,,,,,,,,,,,,,,,,,,,,,,,,
1676057944.688054,1676057944.688424,24.000000,0.000000,4283.461426,4282.307617,4317.692383,4297.051270,4262.051270,4261.153809,4253.077148,4243.974121,4294.871582,4297.692383,4465.128418,4463.461426,4351.025879,4384.871582,0.000000,4.000000,94.000000,,,,0.000000,4.000000,4.000000,4.000000,4.000000,4.000000,4.000000,4.000000,4.000000,4.000000,4.000000,4.000000,4.000000,4.000000,4.000000,100.000000,,,,,,,,,,,,,,,,,,,,,,,,,,,,,,,,,,,,,,,,,,,,,,,,,,,,,,,,,,,,,,,,,,,,,,,,,,,,,,,,,,,,,,
1676057944.695862,1676057944.696332,25.000000,0.000000,4282.692383,4272.179688,4308.589844,4300.128418,4271.666504,4263.846191,4260.000000,4260.000000,4286.794922,4290.897461,4460.897461,4464.743652,4346.922852,4381.410156,0.000000,4.000000,94.000000,,,,0.000000,4.000000,4.000000,4.000000,4.000000,4.000000,4.000000,4.000000,4.000000,4.000000,4.000000,4.000000,4.000000,4.000000,4.000000,100.000000,,,,,,,,,,,,,,,,,,,,,,,,,,,,,,,,,,,,,,,,,,,,,,,,,,,,,,,,,,,,,,,,,,,,,,,,,,,,,,,,,,,,,,
1676057944.703671,1676057944.704140,26.000000,0.000000,4274.358887,4263.333496,4299.230957,4297.436035,4288.461426,4277.948730,4299.102539,4296.410156,4285.641113,4286.153809,4453.974121,4465.512695,4337.436035,4374.871582,0.000000,4.000000,94.000000,,,,0.000000,4.000000,4.000000,4.000000,4.000000,4.000000,4.000000,4.000000,4.000000,4.000000,4.000000,4.000000,4.000000,4.000000,4.000000,100.000000,,,,,,,,,,,,,,,,,,,,,,,,,,,,,,,,,,,,,,,,,,,,,,,,,,,,,,,,,,,,,,,,,,,,,,,,,,,,,,,,,,,,,,
1676057944.711479,1676057944.712049,27.000000,0.000000,4252.820313,4250.384766,4285.384766,4282.820313,4272.307617,4279.230957,4317.307617,4329.487305,4293.589844,4280.512695,4440.897461,4456.538574,4318.717773,4351.538574,0.000000,4.000000,94.000000,,,,0.000000,4.000000,4.000000,4.000000,4.000000,4.000000,4.000000,4.000000,4.000000,4.000000,4.000000,4.000000,4.000000,4.000000,4.000000,100.000000,,,,,,,,,,,,,,,,,,,,,,,,,,,,,,,,,,,,,,,,,,,,,,,,,,,,,,,,,,,,,,,,,,,,,,,,,,,,,,,,,,,,,,
1676057944.719287,1676057944.719857,28.000000,0.000000,4232.179688,4234.871582,4267.563965,4263.974121,4260.769043,4276.025879,4314.743652,4331.282227,4294.871582,4281.410156,4427.051270,4436.538574,4302.820313,4325.769043,0.000000,4.000000,94.000000,,,,0.000000,4.000000,4.000000,4.000000,4.000000,4.000000,4.000000,4.000000,4.000000,4.000000,4.000000,4.000000,4.000000,4.000000,4.000000,100.000000,,,,,,,,,,,,,,,,,,,,,,,,,,,,,,,,,,,,,,,,,,,,,,,,,,,,,,,,,,,,,,,,,,,,,,,,,,,,,,,,,,,,,,
1676057944.727096,1676057944.727766,29.000000,0.000000,4226.922852,4227.948730,4258.333496,4260.256348,4281.153809,4285.897461,4320.769043,4321.410156,4293.974121,4278.205078,4422.692383,4422.179688,4299.102539,4320.000000,0.000000,4.000000,94.000000,,,,0.000000,4.000000,4.000000,4.000000,4.000000,4.000000,4.000000,4.000000,4.000000,4.000000,4.000000,4.000000,4.000000,4.000000,4.000000,100.000000,,,,,,,,,,,,,,,,,,,,,,,,,,,,,,,,,,,,,,,,,,,,,,,,,,,,,,,,,,,,,,,,,,,,,,,,,,,,,,,,,,,,,,
1676057944.734904,1676057944.735574,30.000000,0.000000,4229.871582,4235.897461,4259.358887,4265.897461,4287.179688,4292.436035,4315.641113,4324.102539,4297.948730,4271.282227,4432.436035,4427.307617,4307.051270,4326.794922,0.000000,4.000000,94.000000,,,,0.000000,4.000000,4.000000,4.000000,4.000000,4.000000,4.000000,4.000000,4.000000,4.000000,4.000000,4.000000,4.000000,4.000000,4.000000,100.000000,,,,,,,,,,,,,,,,,6.604578,20.961071,1.111928,0.592078,0.255972,3.378482,13.149562,0.665868,0.416874,0.233763,3.404837,12.848796,0.723294,0.365556,0.235567,3.545237,9.715238,0.444090,0.331150,0.225691,1.126778,1.702720,0.428615,0.432391,0.257546,5.408472,9.335731,0.252361,0.396896,0.161717,6.468683,26.765009,1.799950,1.043546,0.902421,5.583347,57.886219,4.749179,3.750425,1.317539,2.463702,8.712914,0.480659,0.459775,0.143468,3.457397,2.466007,1.065077,0.637941,0.502661,2.390757,8.169553,0.535296,0.707552,0.245949,5.164618,13.626228,1.374655,1.329002,0.493075,3.537697,11.370273,0.445084,0.601013,0.245221,23.130905,17.971889,7.159049,3.535525,0.419340
1676057944.742713,1676057944.743482,31.000000,0.000000,4230.000000,4244.615234,4260.000000,4264.358887,4274.487305,4284.743652,4295.512695,4314.615234,4291.794922,4276.282227,4435.512695,4431.410156,4314.358887,4325.641113,0.000000,4.000000,94.000000,,,,0.000000,4.000000,4.000000,4.000000,4.000000,4.000000,4.000000,4.000000,4.000000,4.000000,4.000000,4.000000,4.000000,4.000000,4.000000,100.000000,,,,,,,,,,,,,,,,,,,,,,,,,,,,,,,,,,,,,,,,,,,,,,,,,,,,,,,,,,,,,,,,,,,,,,,,,,,,,,,,,,,,,,
1676057944.750521,1676057944.751291,32.000000,0.000000,4236.025879,4247.436035,4264.487305,4267.948730,4274.615234,4277.948730,4284.230957,4283.589844,4279.358887,4281.282227,4430.897461,4426.410156,4321.282227,4326.538574,0.000000,4.000000,94.000000,,,,0.000000,4.000000,4.000000,4.000000,4.000000,4.000000,4.000000,4.000000,4.000000,4.000000,4.000000,4.000000,4.000000,4.000000,4.000000,100.000000,,,,,,,,,,,,,,,,,,,,,,,,,,,,,,,,,,,,,,,,,,,,,,,,,,,,,,,,,,,,,,,,,,,,,,,,,,,,,,,,,,,,,,
1676057944.758329,1676057944.759199,33.000000,0.000000,4256.922852,4258.589844,4280.641113,4285.128418,4281.282227,4279.615234,4272.436035,4263.205078,4280.256348,4277.307617,4437.436035,4434.230957,4339.871582,4345.641113,0.000000,4.000000,94.000000,,,,0.000000,4.000000,4.000000,4.000000,4.000000,4.000000,4.000000,4.000000,4.000000,4.000000,4.000000,4.000000,4.000000,4.000000,4.000000,100.000000,,,,,,,,,,,,,,,,,,,,,,,,,,,,,,,,,,,,,,,,,,,,,,,,,,,,,,,,,,,,,,,,,,,,,,,,,,,,,,,,,,,,,,
1676057944.766138,1676057944.767008,34.000000,0.000000,4276.794922,4277.436035,4296.666504,4297.179688,4287.436035,4279.743652,4260.897461,4259.230957,4279.487305,4280.128418,4449.871582,4452.692383,4357.563965,4367.051270,0.000000,4.000000,94.000000,,,,0.000000,4.000000,4.000000,4.000000,4.000000,4.000000,4.000000,4.000000,4.000000,4.000000,4.000000,4.000000,4.000000,4.000000,4.000000,100.000000,,,,,,,,,,,,,,,,,,,,,,,,,,,,,,,,,,,,,,,,,,,,,,,,,,,,,,,,,,,,,,,,,,,,,,,,,,,,,,,,,,,,,,
1676057944.773946,1676057944.774716,35.000000,0.000000,4283.461426,4281.410156,4302.436035,4297.307617,4299.487305,4279.487305,4260.384766,4248.589844,4266.282227,4281.922852,4449.102539,4460.769043,4356.282227,4375.384766,0.000000,4.000000,94.000000,,,,0.000000,4.000000,4.000000,4.000000,4.000000,4.000000,4.000000,4.000000,4.000000,4.000000,4.000000,4.000000,4.000000,4.000000,4.000000,100.000000,,,,,,,,,,,,,,,,,,,,,,,,,,,,,,,,,,,,,,,,,,,,,,,,,,,,,,,,,,,,,,,,,,,,,,,,,,,,,,,,,,,,,,
1676057944.781755,1676057944.782525,36.000000,0.000000,4282.307617,4268.077148,4298.846191,4296.410156,4298.205078,4280.384766,4248.077148,4227.692383,4258.461426,4276.538574,4443.077148,4456.410156,4349.230957,4373.974121,0.000000,4.000000,94.000000,,,,0.000000,4.000000,4.000000,4.000000,4.000000,4.000000,4.000000,4.000000,4.000000,4.000000,4.000000,4.000000,4.000000,4.000000,4.000000,100.000000,,,,,,,,,,,,,,,,,,,,,,,,,,,,,,,,,,,,,,,,,,,,,,,,,,,,,,,,,,,,,,,,,,,,,,,,,,,,,,,,,,,,,,
1676057944.789563,1676057944.790233,37.000000,0.000000,4281.794922,4266.666504,4300.769043,4296.410156,4292.948730,4283.589844,4249.615234,4233.461426,4263.333496,4279.102539,4452.692383,4462.820313,4355.897461,4376.538574,0.000000,4.000000,94.000000,,,,0.000000,4.000000,4.000000,4.000000,4.000000,4.000000,4.000000,4.000000,4.000000,4.000000,4.000000,4.000000,4.000000,4.000000,4.000000,100.000000,,,,,,,,,,,,,,,,,,,,,,,,,,,,,,,,,,,,,,,,,,,,,,,,,,,,,,,,,,,,,,,,,,,,,,,,,,,,,,,,,,,,,,
1676057944.797371,1676057944.798042,38.000000,0.000000,4288.205078,4277.563965,4310.512695,4300.000000,4302.563965,4289.230957,4285.256348,4260.256348,4260.641113,4286.666504,4466.025879,4480.641113,4362.563965,4384.615234,0.000000,4.000000,94.000000,,,,0.000000,4.000000,4.000000,4.000000,4.000000,4.000000,4.000000,4.000000,4.000000,4.000000,4.000000,4.000000,4.000000,4.000000,4.000000,100.000000,,,,,,,,,,,,,,,,,,,,,,,,,,,,,,,,,,,,,,,,,,,,,,,,,,,,,,,,,,,,,,,,,,,,,,,,,,,,,,,,,,,,,,
1676057944.805180,1676057944.805750,39.000000,0.000000,4289.871582,4275.641113,4308.205078,4300.384766,4303.846191,4290.641113,4301.410156,4259.743652,4253.717773,4279.358887,4465.128418,4479.102539,4350.897461,4380.641113,0.000000,4.000000,94.000000,,,,0.000000,4.000000,4.000000,4.000000,4.000000,4.000000,4.000000,4.000000,4.000000,4.000000,4.000000,4.000000,4.000000,4.000000,4.000000,100.000000,,,,,,,,,,,,,,,,,,,,,,,,,,,,,,,,,,,,,,,,,,,,,,,,,,,,,,,,,,,,,,,,,,,,,,,,,,,,,,,,,,,,,,
1676057944.812988,1676057944.813559,40.000000,0.000000,4273.974121,4259.102539,4291.538574,4288.717773,4289.358887,4286.025879,4288.846191,4260.512695,4265.384766,4268.461426,4454.615234,4461.282227,4334.871582,4364.358887,0.000000,4.000000,94.000000,,,,0.000000,4.000000,4.000000,4.000000,4.000000,4.000000,4.000000,4.000000,4.000000,4.000000,4.000000,4.000000,4.000000,4.000000,4.000000,100.000000,,,,,,,,,,,,,,,,,,,,,,,,,,,,,,,,,,,,,,,,,,,,,,,,,,,,,,,,,,,,,,,,,,,,,,,,,,,,,,,,,,,,,,
1676057944.820797,1676057944.821267,41.000000,0.000000,4250.897461,4244.102539,4276.794922,4272.436035,4284.102539,4288.461426,4297.179688,4284.102539,4280.000000,4269.230957,4439.358887,4449.358887,4325.128418,4346.666504,0.000000,4.000000,94.000000,,,,0.000000,4.000000,4.000000,4.000000,4.000000,4.000000,4.000000,4.000000,4.000000,4.000000,4.000000,4.000000,4.000000,4.000000,4.000000,100.000000,,,,,,,,,,,,,,,,,,,,,,,,,,,,,,,,,,,,,,,,,,,,,,,,,,,,,,,,,,,,,,,,,,,,,,,,,,,,,,,,,,,,,,
1676057944.828605,1676057944.829076,42.000000,0.000000,4230.641113,4230.769043,4259.230957,4258.205078,4283.077148,4296.282227,4317.436035,4291.538574,4281.025879,4270.000000,4419.615234,4432.820313,4309.230957,4324.358887,0.000000,4.000000,94.000000,,,,0.000000,4.000000,4.000000,4.000000,4.000000,4.000000,4.000000,4.000000,4.000000,4.000000,4.000000,4.000000,4.000000,4.000000,4.000000,100.000000,,,,,,,,,,,,,,,,,,,,,,,,,,,,,,,,,,,,,,,,,,,,,,,,,,,,,,,,,,,,,,,,,,,,,,,,,,,,,,,,,,,,,,
1676057944.836413,1676057944.836784,43.000000,0.000000,4214.102539,4215.000000,4242.692383,4246.922852,4269.102539,4292.179688,4309.102539,4288.077148,4286.538574,4263.589844,4406.153809,4410.128418,4292.563965,4302.051270,0.000000,4.000000,94.000000,,,,0.000000,4.000000,4.000000,4.000000,4.000000,4.000000,4.000000,4.000000,4.000000,4.000000,4.000000,4.000000,4.000000,4.000000,4.000000,100.000000,,,,,,,,,,,,,,,,,,,,,,,,,,,,,,,,,,,,,,,,,,,,,,,,,,,,,,,,,,,,,,,,,,,,,,,,,,,,,,,,,,,,,,
1676057944.844222,1676057944.844593,44.000000,0.000000,4210.128418,4210.897461,4244.487305,4242.692383,4260.256348,4280.000000,4292.179688,4303.589844,4298.333496,4260.897461,4410.256348,4408.717773,4293.846191,4299.743652,0.000000,4.000000,94.000000,,,,0.000000,4.000000,4.000000,4.000000,4.000000,4.000000,4.000000,4.000000,4.000000,4.000000,4.000000,4.000000,4.000000,4.000000,4.000000,100.000000,,,,,,,,,,,,,,,,,,,,,,,,,,,,,,,,,,,,,,,,,,,,,,,,,,,,,,,,,,,,,,,,,,,,,,,,,,,,,,,,,,,,,,
1676057944.852030,1676057944.852301,45.000000,0.000000,4222.051270,4222.436035,4255.128418,4247.692383,4261.410156,4277.563965,4293.205078,4310.512695,4300.000000,4268.717773,4422.051270,4426.025879,4306.025879,4312.948730,0.000000,4.000000,94.000000,,,,0.000000,4.000000,4.000000,4.000000,4.000000,4.000000,4.000000,4.000000,4.000000,4.000000,4.000000,4.000000,4.000000,4.000000,4.000000,100.000000,,,,,,,,,,,,,,,,,,,,,,,,,,,,,,,,,,,,,,,,,,,,,,,,,,,,,,,,,,,,,,,,,,,,,,,,,,,,,,,,,,,,,,
1676057944.859838,1676057944.860110,46.000000,0.000000,4237.436035,4234.615234,4265.512695,4257.820313,4261.922852,4281.794922,4297.563965,4308.461426,4297.563965,4279.743652,4434.230957,4445.256348,4317.820313,4331.410156,0.000000,4.000000,94.000000,,,,0.000000,4.000000,4.000000,4.000000,4.000000,4.000000,4.000000,4.000000,4.000000,4.000000,4.000000,4.000000,4.000000,4.000000,4.000000,100.000000,,,,,,,,,,,,,,,,,6.591089,22.281687,0.919927,0.613599,0.259979,3.143022,13.953271,0.552917,0.421706,0.229179,3.523566,13.778800,0.522904,0.344680,0.238628,3.573023,10.338659,0.368224,0.343931,0.225952,1.192841,1.931904,0.388546,0.350531,0.249511,5.288045,9.678071,0.244171,0.402463,0.137665,6.236865,29.995077,1.469239,1.114995,0.748483,5.602069,53.406536,4.848466,3.845473,1.341862,2.361405,8.194386,0.418155,0.475514,0.152512,3.020701,2.567610,0.832167,0.632947,0.478160,2.359434,8.244619,0.542618,0.776756,0.236834,5.085659,13.708894,1.297344,1.461656,0.529071,3.491021,12.444201,0.428920,0.627721,0.253367,23.557985,19.873516,7.296896,3.788468,0.437520
1676057944.867647,1676057944.867818,47.000000,0.000000,4253.974121,4242.179688,4278.589844,4269.102539,4268.589844,4276.153809,4290.897461,4324.743652,4298.205078,4284.102539,4448.974121,4465.897461,4329.102539,4355.128418,0.000000,4.000000,94.000000,,,,0.000000,4.000000,4.000000,4.000000,4.000000,4.000000,4.000000,4.000000,4.000000,4.000000,4.000000,4.000000,4.000000,4.000000,4.000000,100.000000,,,,,,,,,,,,,,,,,,,,,,,,,,,,,,,,,,,,,,,,,,,,,,,,,,,,,,,,,,,,,,,,,,,,,,,,,,,,,,,,,,,,,,
1676057944.875455,1676057944.875627,48.000000,0.000000,4273.205078,4257.948730,4292.563965,4283.846191,4280.128418,4266.794922,4276.922852,4322.179688,4296.794922,4278.846191,4460.512695,4478.077148,4336.666504,4369.743652,0.000000,4.000000,94.000000,,,,0.000000,4.000000,4.000000,4.000000,4.000000,4.000000,4.000000,4.000000,4.000000,4.000000,4.000000,4.000000,4.000000,4.000000,4.000000,100.000000,,,,,,,,,,,,,,,,,,,,,,,,,,,,,,,,,,,,,,,,,,,,,,,,,,,,,,,,,,,,,,,,,,,,,,,,,,,,,,,,,,,,,,
1676057944.883264,1676057944.883335,49.000000,0.000000,4286.282227,4277.563965,4307.307617,4299.358887,4282.692383,4260.256348,4259.102539,4298.974121,4291.922852,4268.974121,4460.256348,4482.563965,4337.563965,4375.128418,0.000000,4.000000,94.000000,,,,0.000000,4.000000,4.000000,4.000000,4.000000,4.000000,4.000000,4.000000,4.000000,4.000000,4.000000,4.000000,4.000000,4.000000,4.000000,100.000000,,,,,,,,,,,,,,,,,,,,,,,,,,,,,,,,,,,,,,,,,,,,,,,,,,,,,,,,,,,,,,,,,,,,,,,,,,,,,,,,,,,,,,
1676057944.891072,1676057944.891244,50.000000,0.000000,4293.846191,4283.717773,4317.307617,4306.282227,4280.128418,4248.974121,4243.974121,4291.410156,4285.000000,4265.256348,4460.256348,4494.487305,4343.461426,4386.666504,0.000000,4.000000,94.000000,,,,0.000000,4.000000,4.000000,4.000000,4.000000,4.000000,4.000000,4.000000,4.000000,4.000000,4.000000,4.000000,4.000000,4.000000,4.000000,100.000000,,,,,,,,,,,,,,,,,,,,,,,,,,,,,,,,,,,,,,,,,,,,,,,,,,,,,,,,,,,,,,,,,,,,,,,,,,,,,,,,,,,,,,
1676057944.898880,1676057944.899052,51.000000,0.000000,4301.282227,4281.282227,4319.230957,4306.794922,4285.000000,4240.384766,4245.897461,4288.461426,4274.615234,4265.512695,4468.846191,4506.922852,4357.051270,4399.230957,0.000000,4.000000,94.000000,,,,0.000000,4.000000,4.000000,4.000000,4.000000,4.000000,4.000000,4.000000,4.000000,4.000000,4.000000,4.000000,4.000000,4.000000,4.000000,100.000000,,,,,,,,,,,,,,,,,,,,,,,,,,,,,,,,,,,,,,,,,,,,,,,,,,,,,,,,,,,,,,,,,,,,,,,,,,,,,,,,,,,,,,
1676057944.906689,1676057944.906960,52.000000,0.000000,4310.512695,4287.436035,4326.025879,4315.512695,4292.307617,4247.692383,4261.922852,4301.153809,4268.717773,4267.563965,4484.615234,4519.487305,4368.717773,4411.025879,0.000000,4.000000,94.000000,,,,0.000000,4.000000,4.000000,4.000000,4.000000,4.000000,4.000000,4.000000,4.000000,4.000000,4.000000,4.000000,4.000000,4.000000,4.000000,100.000000,,,,,,,,,,,,,,,,,,,,,,,,,,,,,,,,,,,,,,,,,,,,,,,,,,,,,,,,,,,,,,,,,,,,,,,,,,,,,,,,,,,,,,
1676057944.914497,1676057944.914769,53.000000,0.000000,4320.256348,4297.948730,4337.307617,4322.948730,4296.153809,4260.512695,4283.589844,4318.974121,4267.563965,4264.615234,4494.358887,4532.820313,4372.563965,4421.410156,0.000000,4.000000,94.000000,,,,0.000000,4.000000,4.000000,4.000000,4.000000,4.000000,4.000000,4.000000,4.000000,4.000000,4.000000,4.000000,4.000000,4.000000,4.000000,100.000000,,,,,,,,,,,,,,,,,,,,,,,,,,,,,,,,,,,,,,,,,,,,,,,,,,,,,,,,,,,,,,,,,,,,,,,,,,,,,,,,,,,,,,
1676057944.922306,1676057944.922677,54.000000,0.000000,4321.153809,4293.333496,4333.974121,4317.051270,4295.256348,4265.384766,4300.128418,4298.205078,4267.179688,4253.205078,4483.717773,4524.230957,4366.922852,4416.922852,0.000000,4.000000,94.000000,,,,0.000000,4.000000,4.000000,4.000000,4.000000,4.000000,4.000000,4.000000,4.000000,4.000000,4.000000,4.000000,4.000000,4.000000,4.000000,100.000000,,,,,,,,,,,,,,,,,,,,,,,,,,,,,,,,,,,,,,,,,,,,,,,,,,,,,,,,,,,,,,,,,,,,,,,,,,,,,,,,,,,,,,
1676057944.930114,1676057944.930486,55.000000,0.000000,4310.641113,4282.179688,4319.615234,4308.077148,4295.000000,4272.948730,4302.436035,4271.153809,4272.307617,4247.051270,4465.641113,4502.179688,4360.384766,4401.794922,0.000000,4.000000,94.000000,,,,0.000000,4.000000,4.000000,4.000000,4.000000,4.000000,4.000000,4.000000,4.000000,4.000000,4.000000,4.000000,4.000000,4.000000,4.000000,100.000000,,,,,,,,,,,,,,,,,,,,,,,,,,,,,,,,,,,,,,,,,,,,,,,,,,,,,,,,,,,,,,,,,,,,,,,,,,,,,,,,,,,,,,
1676057944.937922,1676057944.938394,56.000000,0.000000,4297.692383,4276.922852,4310.897461,4301.025879,4297.307617,4286.025879,4302.179688,4286.666504,4280.000000,4252.820313,4461.538574,4492.307617,4356.538574,4393.333496,0.000000,4.000000,94.000000,,,,0.000000,4.000000,4.000000,4.000000,4.000000,4.000000,4.000000,4.000000,4.000000,4.000000,4.000000,4.000000,4.000000,4.000000,4.000000,100.000000,,,,,,,,,,,,,,,,,,,,,,,,,,,,,,,,,,,,,,,,,,,,,,,,,,,,,,,,,,,,,,,,,,,,,,,,,,,,,,,,,,,,,,
1676057944.945731,1676057944.946202,57.000000,0.000000,4278.717773,4268.205078,4298.974121,4287.179688,4289.102539,4292.820313,4303.589844,4300.384766,4283.846191,4248.461426,4456.025879,4479.487305,4341.410156,4378.205078,0.000000,4.000000,94.000000,,,,0.000000,4.000000,4.000000,4.000000,4.000000,4.000000,4.000000,4.000000,4.000000,4.000000,4.000000,4.000000,4.000000,4.000000,4.000000,100.000000,,,,,,,,,,,,,,,,,,,,,,,,,,,,,,,,,,,,,,,,,,,,,,,,,,,,,,,,,,,,,,,,,,,,,,,,,,,,,,,,,,,,,,
1676057944.953539,1676057944.954111,58.000000,0.000000,4254.358887,4248.333496,4278.974121,4269.615234,4274.358887,4293.333496,4300.000000,4292.307617,4284.102539,4230.769043,4436.794922,4459.871582,4319.358887,4351.538574,0.000000,4.000000,94.000000,,,,0.000000,4.000000,4.000000,4.000000,4.000000,4.000000,4.000000,4.000000,4.000000,4.000000,4.000000,4.000000,4.000000,4.000000,4.000000,100.000000,,,,,,,,,,,,,,,,,,,,,,,,,,,,,,,,,,,,,,,,,,,,,,,,,,,,,,,,,,,,,,,,,,,,,,,,,,,,,,,,,,,,,,
1676057944.961348,1676057944.961919,59.000000,0.000000,4241.666504,4231.025879,4267.692383,4259.615234,4272.436035,4292.563965,4296.538574,4295.256348,4282.436035,4218.974121,4424.743652,4447.179688,4307.563965,4334.358887,0.000000,4.000000,94.000000,,,,0.000000,4.000000,4.000000,4.000000,4.000000,4.000000,4.000000,4.000000,4.000000,4.000000,4.000000,4.000000,4.000000,4.000000,4.000000,100.000000,,,,,,,,,,,,,,,,,,,,,,,,,,,,,,,,,,,,,,,,,,,,,,,,,,,,,,,,,,,,,,,,,,,,,,,,,,,,,,,,,,,,,,
1676057944.969156,1676057944.969827,60.000000,0.000000,4246.538574,4230.128418,4271.922852,4263.974121,4276.538574,4293.589844,4293.461426,4293.461426,4280.897461,4216.538574,4424.743652,4443.589844,4303.974121,4334.487305,0.000000,4.000000,94.000000,,,,0.000000,4.000000,4.000000,4.000000,4.000000,4.000000,4.000000,4.000000,4.000000,4.000000,4.000000,4.000000,4.000000,4.000000,4.000000,100.000000,,,,,,,,,,,,,,,,,,,,,,,,,,,,,,,,,,,,,,,,,,,,,,,,,,,,,,,,,,,,,,,,,,,,,,,,,,,,,,,,,,,,,,
1676057944.976964,1676057944.977636,61.000000,0.000000,4253.974121,4241.025879,4278.333496,4273.589844,4277.563965,4293.974121,4276.922852,4282.436035,4282.436035,4221.282227,4430.384766,4449.871582,4302.436035,4342.436035,0.000000,4.000000,94.000000,,,,0.000000,4.000000,4.000000,4.000000,4.000000,4.000000,4.000000,4.000000,4.000000,4.000000,4.000000,4.000000,4.000000,4.000000,4.000000,100.000000,,,,,,,,,,,,,,,,,,,,,,,,,,,,,,,,,,,,,,,,,,,,,,,,,,,,,,,,,,,,,,,,,,,,,,,,,,,,,,,,,,,,,,
1676057944.984773,1676057944.985344,62.000000,0.000000,4258.205078,4251.666504,4283.205078,4277.948730,4284.358887,4295.641113,4260.641113,4280.256348,4282.436035,4231.538574,4438.846191,4459.743652,4310.641113,4347.820313,0.000000,4.000000,94.000000,,,,0.000000,4.000000,4.000000,4.000000,4.000000,4.000000,4.000000,4.000000,4.000000,4.000000,4.000000,4.000000,4.000000,4.000000,4.000000,100.000000,,,,,,,,,,,,,,,,,6.688843,23.580450,0.705447,0.610194,0.266347,3.018198,14.484534,0.456333,0.409630,0.219823,3.872300,14.835720,0.339148,0.313310,0.236346,3.576704,11.020080,0.299004,0.343109,0.227759,1.195257,2.176306,0.328528,0.287267,0.244351,4.701594,9.560781,0.272473,0.411062,0.120311,5.422680,33.819351,1.344120,1.191961,0.606648,5.193294,52.428631,4.648825,3.758503,1.311759,2.178868,7.654725,0.351610,0.495561,0.165710,2.593321,2.630829,0.612566,0.630078,0.435694,2.622674,8.562581,0.565249,0.816122,0.226435,5.378460,14.676715,1.201117,1.502394,0.561428,3.464614,13.371115,0.419258,0.602780,0.257010,21.440794,21.240553,6.549879,3.575013,0.428895
1676057944.992581,1676057944.993153,63.000000,0.000000,4269.743652,4260.897461,4291.666504,4286.282227,4293.589844,4292.820313,4261.538574,4274.743652,4277.563965,4234.743652,4444.358887,4465.000000,4322.051270,4353.846191,0.000000,4.000000,94.000000,,,,0.000000,4.000000,4.000000,4.000000,4.000000,4.000000,4.000000,4.000000,4.000000,4.000000,4.000000,4.000000,4.000000,4.000000,4.000000,100.000000,,,,,,,,,,,,,,,,,,,,,,,,,,,,,,,,,,,,,,,,,,,,,,,,,,,,,,,,,,,,,,,,,,,,,,,,,,,,,,,,,,,,,,
1676057945.000390,1676057945.000861,64.000000,0.000000,4289.743652,4276.025879,4298.461426,4300.000000,4295.641113,4283.461426,4262.563965,4258.717773,4278.974121,4232.051270,4444.102539,4471.922852,4326.794922,4367.563965,2244.000000,4.000000,94.000000,,,,0.000000,4.000000,4.000000,4.000000,4.000000,4.000000,4.000000,4.000000,4.000000,4.000000,4.000000,4.000000,4.000000,4.000000,4.000000,100.000000,,,,,,,,,,,,,,,,,,,,,,,,,,,,,,,,,,,,,,,,,,,,,,,,,,,,,,,,,,,,,,,,,,,,,,,,,,,,,,,,,,,,,,
1676057945.008198,1676057945.008670,65.000000,0.000000,4300.256348,4283.205078,4304.102539,4304.615234,4295.512695,4276.922852,4260.128418,4244.615234,4276.666504,4237.820313,4443.333496,4476.153809,4326.153809,4379.102539,2348.000000,4.000000,94.000000,,,,0.000000,4.000000,4.000000,4.000000,4.000000,4.000000,4.000000,4.000000,4.000000,4.000000,4.000000,4.000000,4.000000,4.000000,4.000000,100.000000,,,,,,,,,,,,,,,,,,,,,,,,,,,,,,,,,,,,,,,,,,,,,,,,,,,,,,,,,,,,,,,,,,,,,,,,,,,,,,,,,,,,,,
1676057945.016006,1676057945.016378,66.000000,0.000000,4299.871582,4282.692383,4311.410156,4307.051270,4297.179688,4276.538574,4267.307617,4242.948730,4270.512695,4242.179688,4448.205078,4475.641113,4329.358887,4381.282227,2383.000000,4.000000,94.000000,,,,0.000000,4.000000,4.000000,4.000000,4.000000,4.000000,4.000000,4.000000,4.000000,4.000000,4.000000,4.000000,4.000000,4.000000,4.000000,100.000000,,,,,,,,,,,,,,,,,,,,,,,,,,,,,,,,,,,,,,,,,,,,,,,,,,,,,,,,,,,,,,,,,,,,,,,,,,,,,,,,,,,,,,
1676057945.023815,1676057945.024287,67.000000,0.000000,4303.461426,4288.846191,4315.512695,4311.794922,4296.153809,4276.025879,4282.307617,4262.820313,4280.512695,4235.000000,4458.717773,4486.922852,4343.205078,4389.230957,2264.000000,4.000000,94.000000,,,,0.000000,4.000000,4.000000,4.000000,4.000000,4.000000,4.000000,4.000000,4.000000,4.000000,4.000000,4.000000,4.000000,4.000000,4.000000,100.000000,,,,,,,,,,,,,,,,,,,,,,,,,,,,,,,,,,,,,,,,,,,,,,,,,,,,,,,,,,,,,,,,,,,,,,,,,,,,,,,,,,,,,,
1676057945.031623,1676057945.032095,68.000000,0.000000,4304.743652,4290.769043,4311.666504,4307.563965,4293.974121,4277.307617,4300.641113,4298.077148,4291.666504,4229.871582,4467.948730,4501.666504,4352.436035,4400.000000,2289.000000,4.000000,94.000000,,,,0.000000,4.000000,4.000000,4.000000,4.000000,4.000000,4.000000,4.000000,4.000000,4.000000,4.000000,4.000000,4.000000,4.000000,4.000000,100.000000,,,,,,,,,,,,,,,,,,,,,,,,,,,,,,,,,,,,,,,,,,,,,,,,,,,,,,,,,,,,,,,,,,,,,,,,,,,,,,,,,,,,,,
1676057945.039432,1676057945.040004,69.000000,0.000000,4291.153809,4280.000000,4302.179688,4299.102539,4293.205078,4284.358887,4314.358887,4309.102539,4284.358887,4235.256348,4461.538574,4490.641113,4338.846191,4389.615234,2102.000000,4.000000,94.000000,,,,0.000000,4.000000,4.000000,4.000000,4.000000,4.000000,4.000000,4.000000,4.000000,4.000000,4.000000,4.000000,4.000000,4.000000,4.000000,100.000000,,,,,,,,,,,,,,,,,,,,,,,,,,,,,,,,,,,,,,,,,,,,,,,,,,,,,,,,,,,,,,,,,,,,,,,,,,,,,,,,,,,,,,
1676057945.047240,1676057945.047812,70.000000,0.000000,4273.461426,4264.487305,4288.974121,4292.692383,4291.410156,4291.025879,4311.538574,4290.128418,4275.641113,4233.717773,4445.000000,4463.717773,4316.153809,4362.563965,2277.000000,4.000000,94.000000,,,,0.000000,4.000000,4.000000,4.000000,4.000000,4.000000,4.000000,4.000000,4.000000,4.000000,4.000000,4.000000,4.000000,4.000000,4.000000,100.000000,,,,,,,,,,,,,,,,,,,,,,,,,,,,,,,,,,,,,,,,,,,,,,,,,,,,,,,,,,,,,,,,,,,,,,,,,,,,,,,,,,,,,,
1676057945.055048,1676057945.055620,71.000000,0.000000,4264.230957,4255.000000,4279.743652,4284.102539,4287.051270,4294.487305,4312.179688,4292.307617,4283.589844,4220.000000,4438.846191,4454.487305,4307.051270,4349.102539,2433.000000,4.000000,94.000000,,,,0.000000,4.000000,4.000000,4.000000,4.000000,4.000000,4.000000,4.000000,4.000000,4.000000,4.000000,4.000000,4.000000,4.000000,4.000000,100.000000,,,,,,,,,,,,,,,,,,,,,,,,,,,,,,,,,,,,,,,,,,,,,,,,,,,,,,,,,,,,,,,,,,,,,,,,,,,,,,,,,,,,,,
1676057945.062857,1676057945.063329,72.000000,0.000000,4263.589844,4253.589844,4278.717773,4279.615234,4281.410156,4297.307617,4326.410156,4319.487305,4289.230957,4215.384766,4442.820313,4463.589844,4311.410156,4354.230957,2032.000000,4.000000,94.000000,,,,0.000000,4.000000,4.000000,4.000000,4.000000,4.000000,4.000000,4.000000,4.000000,4.000000,4.000000,4.000000,4.000000,4.000000,4.000000,100.000000,,,,,,,,,,,,,,,,,,,,,,,,,,,,,,,,,,,,,,,,,,,,,,,,,,,,,,,,,,,,,,,,,,,,,,,,,,,,,,,,,,,,,,
1676057945.070665,1676057945.071137,73.000000,0.000000,4262.307617,4251.025879,4270.256348,4281.410156,4280.641113,4296.922852,4319.358887,4324.358887,4284.230957,4221.282227,4442.820313,4464.230957,4312.051270,4352.820313,2184.000000,4.000000,94.000000,,,,0.000000,4.000000,4.000000,4.000000,4.000000,4.000000,4.000000,4.000000,4.000000,4.000000,4.000000,4.000000,4.000000,4.000000,4.000000,100.000000,,,,,,,,,,,,,,,,,,,,,,,,,,,,,,,,,,,,,,,,,,,,,,,,,,,,,,,,,,,,,,,,,,,,,,,,,,,,,,,,,,,,,,
1676057945.078474,1676057945.078846,74.000000,0.000000,4257.051270,4246.025879,4259.871582,4279.871582,4285.512695,4292.179688,4294.615234,4313.846191,4282.820313,4228.333496,4442.051270,4458.846191,4309.743652,4352.179688,2520.000000,4.000000,94.000000,,,,0.000000,4.000000,4.000000,4.000000,4.000000,4.000000,4.000000,4.000000,4.000000,4.000000,4.000000,4.000000,4.000000,4.000000,4.000000,100.000000,,,,,,,,,,,,,,,,,,,,,,,,,,,,,,,,,,,,,,,,,,,,,,,,,,,,,,,,,,,,,,,,,,,,,,,,,,,,,,,,,,,,,,
1676057945.086282,1676057945.086754,75.000000,0.000000,4260.256348,4254.615234,4268.461426,4280.384766,4294.615234,4286.153809,4282.563965,4306.153809,4287.051270,4228.846191,4444.358887,4463.077148,4313.589844,4362.051270,2869.000000,4.000000,94.000000,,,,0.000000,4.000000,4.000000,4.000000,4.000000,4.000000,4.000000,4.000000,4.000000,4.000000,4.000000,4.000000,4.000000,4.000000,4.000000,100.000000,,,,,,,,,,,,,,,,,,,,,,,,,,,,,,,,,,,,,,,,,,,,,,,,,,,,,,,,,,,,,,,,,,,,,,,,,,,,,,,,,,,,,,
1676057945.094090,1676057945.094563,76.000000,0.000000,4265.641113,4261.794922,4277.820313,4280.128418,4293.205078,4283.077148,4275.256348,4278.205078,4281.538574,4221.153809,4432.692383,4459.102539,4310.256348,4357.820313,2805.000000,4.000000,94.000000,,,,0.000000,4.000000,4.000000,4.000000,4.000000,4.000000,4.000000,4.000000,4.000000,4.000000,4.000000,4.000000,4.000000,4.000000,4.000000,100.000000,,,,,,,,,,,,,,,,,,,,,,,,,,,,,,,,,,,,,,,,,,,,,,,,,,,,,,,,,,,,,,,,,,,,,,,,,,,,,,,,,,,,,,
